SpectraSuite Data File
++++++++++++++++++++++++++++++++++++
Date: Mon Aug 26 10:24:31 PDT 2019
User: corrico
Dark Spectrum Present: No
Reference Spectrum Present: No
Number of Sampled Component Spectra: 1
Spectrometers: USB2+H06089
Integration Time (usec): 10000 (USB2+H06089)
Spectra Averaged: 2 (USB2+H06089)
Boxcar Smoothing: 2 (USB2+H06089)
Correct for Electrical Dark: No (USB2+H06089)
Strobe/Lamp Enabled: No (USB2+H06089)
Correct for Detector Non-linearity: No (USB2+H06089)
Correct for Stray Light: No (USB2+H06089)
Number of Pixels in Processed Spectrum: 2048
>>>>>Begin Processed Spectral Data<<<<<
339.70	1064.94
340.07	1064.94
340.45	1010.88
340.82	997.07
341.19	969.45
341.57	936.45
341.94	924.04
342.31	913.98
342.69	895.02
343.06	889.17
343.43	890.34
343.81	897.60
344.18	892.91
344.55	901.34
344.93	909.77
345.30	917.49
345.67	933.41
346.04	955.64
346.42	961.26
346.79	961.96
347.16	965.47
347.54	967.81
347.91	969.45
348.28	970.85
348.65	983.49
349.03	990.75
349.40	993.79
349.77	1012.98
350.14	1021.88
350.52	1034.05
350.89	1036.39
351.26	1038.03
351.63	1030.07
352.01	1042.71
352.38	1045.75
352.75	1059.33
353.12	1072.90
353.50	1081.56
353.87	1072.90
354.24	1071.26
354.61	1063.07
354.98	1059.79
355.36	1064.24
355.73	1073.60
356.10	1070.09
356.47	1074.54
356.84	1075.94
357.22	1075.24
357.59	1067.99
357.96	1069.39
358.33	1072.67
358.70	1072.90
359.08	1081.56
359.45	1089.05
359.82	1094.20
360.19	1085.54
360.56	1085.31
360.94	1073.84
361.31	1073.84
361.68	1069.62
362.05	1075.71
362.42	1076.18
362.79	1074.07
363.16	1072.20
363.54	1074.54
363.91	1074.07
364.28	1066.82
364.65	1070.56
365.02	1073.60
365.39	1073.60
365.76	1076.65
366.14	1082.03
366.51	1076.88
366.88	1060.96
367.25	1052.07
367.62	1048.56
367.99	1043.64
368.36	1048.56
368.73	1054.88
369.10	1075.24
369.48	1080.39
369.85	1090.22
370.22	1083.43
370.59	1079.69
370.96	1075.01
371.33	1071.97
371.70	1071.50
372.07	1070.80
372.44	1085.07
372.81	1083.90
373.18	1078.28
373.55	1069.62
373.93	1068.22
374.30	1067.52
374.67	1056.05
375.04	1061.20
375.41	1067.75
375.78	1068.69
376.15	1060.50
376.52	1063.31
376.89	1058.86
377.26	1058.86
377.63	1065.65
378.00	1066.58
378.37	1064.71
378.74	1069.62
379.11	1063.07
379.48	1056.28
379.85	1066.11
380.22	1070.80
380.59	1080.16
380.96	1078.99
381.33	1077.35
381.70	1068.69
382.07	1061.90
382.44	1047.86
382.81	1053.48
383.18	1054.41
383.55	1052.77
383.92	1047.86
384.29	1041.07
384.66	1031.01
385.03	1037.79
385.40	1048.33
385.77	1057.92
386.14	1070.33
386.51	1077.11
386.88	1068.45
387.25	1057.92
387.62	1061.43
387.99	1058.86
388.36	1067.52
388.73	1076.88
389.10	1080.63
389.46	1081.56
389.83	1075.48
390.20	1078.05
390.57	1083.67
390.94	1082.73
391.31	1081.80
391.68	1091.16
392.05	1080.39
392.42	1076.18
392.79	1078.05
393.16	1072.43
393.53	1069.39
393.89	1081.56
394.26	1078.05
394.63	1085.54
395.00	1082.50
395.37	1083.90
395.74	1071.97
396.11	1068.22
396.48	1060.26
396.84	1064.48
397.21	1068.92
397.58	1074.07
397.95	1080.16
398.32	1083.90
398.69	1083.90
399.06	1081.09
399.42	1073.84
399.79	1072.20
400.16	1066.35
400.53	1077.35
400.90	1076.18
401.27	1079.22
401.64	1078.99
402.00	1077.58
402.37	1067.28
402.74	1065.18
403.11	1069.86
403.48	1076.65
403.84	1083.43
404.21	1076.18
404.58	1086.71
404.95	1082.26
405.32	1084.14
405.68	1084.84
406.05	1104.03
406.42	1090.92
406.79	1093.50
407.16	1082.97
407.52	1074.77
407.89	1062.14
408.26	1065.65
408.63	1062.60
408.99	1065.41
409.36	1074.77
409.73	1072.43
410.10	1070.33
410.47	1066.35
410.83	1061.20
411.20	1055.35
411.57	1052.54
411.94	1057.92
412.30	1073.84
412.67	1071.50
413.04	1076.41
413.40	1084.60
413.77	1078.52
414.14	1067.52
414.51	1067.52
414.87	1065.41
415.24	1065.65
415.61	1067.05
415.97	1075.01
416.34	1093.97
416.71	1089.52
417.08	1086.24
417.44	1090.92
417.81	1083.67
418.18	1076.88
418.54	1073.84
418.91	1078.28
419.28	1074.77
419.64	1080.86
420.01	1076.18
420.38	1085.31
420.74	1085.54
421.11	1091.39
421.48	1085.31
421.84	1082.73
422.21	1070.80
422.58	1071.73
422.94	1065.18
423.31	1076.41
423.68	1075.94
424.04	1081.80
424.41	1082.97
424.77	1081.56
425.14	1068.45
425.51	1072.67
425.87	1078.05
426.24	1071.97
426.61	1074.31
426.97	1074.54
427.34	1068.69
427.70	1059.56
428.07	1062.60
428.44	1065.88
428.80	1065.41
429.17	1067.99
429.53	1067.52
429.90	1069.39
430.27	1066.58
430.63	1076.18
431.00	1075.01
431.36	1082.26
431.73	1077.58
432.09	1082.03
432.46	1072.90
432.83	1071.03
433.19	1060.03
433.56	1067.05
433.92	1064.94
434.29	1065.41
434.65	1069.86
435.02	1075.71
435.38	1068.69
435.75	1076.41
436.11	1081.80
436.48	1088.82
436.84	1092.80
437.21	1091.16
437.57	1083.67
437.94	1080.86
438.30	1077.11
438.67	1081.09
439.03	1093.26
439.40	1097.24
439.76	1097.95
440.13	1092.80
440.49	1089.75
440.86	1074.31
441.22	1075.71
441.59	1076.88
441.95	1085.07
442.32	1086.01
442.68	1092.09
443.05	1093.26
443.41	1092.56
443.78	1081.09
444.14	1075.48
444.51	1079.46
444.87	1071.26
445.24	1071.03
445.60	1089.29
445.96	1096.07
446.33	1089.52
446.69	1089.05
447.06	1089.52
447.42	1071.97
447.79	1065.88
448.15	1067.05
448.51	1067.28
448.88	1059.33
449.24	1071.50
449.61	1077.82
449.97	1084.37
450.33	1089.99
450.70	1106.61
451.06	1111.99
451.43	1107.07
451.79	1111.52
452.15	1107.07
452.52	1092.56
452.88	1076.41
453.24	1075.94
453.61	1066.82
453.97	1067.05
454.34	1075.48
454.70	1080.86
455.06	1081.33
455.43	1080.86
455.79	1086.48
456.15	1084.60
456.52	1080.63
456.88	1076.18
457.24	1081.80
457.61	1074.07
457.97	1060.73
458.33	1060.96
458.70	1067.52
459.06	1063.54
459.42	1075.01
459.79	1084.84
460.15	1085.31
460.51	1080.86
460.88	1071.73
461.24	1075.48
461.60	1075.71
461.96	1077.82
462.33	1087.65
462.69	1096.54
463.05	1081.80
463.42	1073.84
463.78	1076.65
464.14	1079.22
464.50	1077.11
464.87	1085.07
465.23	1099.82
465.59	1101.22
465.95	1088.35
466.32	1095.14
466.68	1084.14
467.04	1076.18
467.40	1076.88
467.77	1088.58
468.13	1088.35
468.49	1085.07
468.85	1097.01
469.22	1084.60
469.58	1076.41
469.94	1065.65
470.30	1071.26
470.66	1065.88
471.03	1071.97
471.39	1065.88
471.75	1069.62
472.11	1075.01
472.47	1070.80
472.84	1074.77
473.20	1080.16
473.56	1078.99
473.92	1071.97
474.28	1070.09
474.65	1066.11
475.01	1069.16
475.37	1073.14
475.73	1085.54
476.09	1093.97
476.45	1095.84
476.81	1097.01
477.18	1094.20
477.54	1089.99
477.90	1081.56
478.26	1081.09
478.62	1078.28
478.98	1084.37
479.34	1078.99
479.71	1082.73
480.07	1075.48
480.43	1082.97
480.79	1084.84
481.15	1086.01
481.51	1090.22
481.87	1089.75
482.23	1089.75
482.59	1086.24
482.96	1080.39
483.32	1075.24
483.68	1085.54
484.04	1081.09
484.40	1076.88
484.76	1086.94
485.12	1087.88
485.48	1083.20
485.84	1079.22
486.20	1078.05
486.56	1069.86
486.92	1073.14
487.28	1066.11
487.64	1069.39
488.00	1063.54
488.37	1078.75
488.73	1072.20
489.09	1094.67
489.45	1092.09
489.81	1106.61
490.17	1086.48
490.53	1090.92
490.89	1079.22
491.25	1078.05
491.61	1074.77
491.97	1081.33
492.33	1076.65
492.69	1075.71
493.05	1078.52
493.41	1067.05
493.77	1068.69
494.13	1066.58
494.49	1068.45
494.85	1064.94
495.21	1064.01
495.57	1063.31
495.93	1079.92
496.29	1075.71
496.64	1072.43
497.00	1084.84
497.36	1081.80
497.72	1064.01
498.08	1068.92
498.44	1076.88
498.80	1072.67
499.16	1084.37
499.52	1086.24
499.88	1079.92
500.24	1075.94
500.60	1080.86
500.96	1073.84
501.32	1064.94
501.68	1076.88
502.03	1081.33
502.39	1082.50
502.75	1078.28
503.11	1084.84
503.47	1072.90
503.83	1072.20
504.19	1069.62
504.55	1073.60
504.91	1083.90
505.26	1082.73
505.62	1080.16
505.98	1075.71
506.34	1078.28
506.70	1067.52
507.06	1072.90
507.42	1067.05
507.78	1067.75
508.13	1064.71
508.49	1071.26
508.85	1075.24
509.21	1073.84
509.57	1075.94
509.93	1073.60
510.28	1076.88
510.64	1067.99
511.00	1073.84
511.36	1080.86
511.72	1082.50
512.07	1078.28
512.43	1082.97
512.79	1080.63
513.15	1071.26
513.51	1065.41
513.86	1064.24
514.22	1060.50
514.58	1063.54
514.94	1064.24
515.30	1075.48
515.65	1080.39
516.01	1084.14
516.37	1083.20
516.73	1084.14
517.08	1076.41
517.44	1075.71
517.80	1072.67
518.16	1078.28
518.51	1086.71
518.87	1097.95
519.23	1089.05
519.59	1101.46
519.94	1095.37
520.30	1086.71
520.66	1076.65
521.01	1089.29
521.37	1079.92
521.73	1078.99
522.09	1075.94
522.44	1078.05
522.80	1065.18
523.16	1054.41
523.51	1055.35
523.87	1063.77
524.23	1073.14
524.58	1070.09
524.94	1085.31
525.30	1091.16
525.65	1085.54
526.01	1080.16
526.37	1092.56
526.72	1090.69
527.08	1085.54
527.44	1089.75
527.79	1085.07
528.15	1080.39
528.51	1077.58
528.86	1074.54
529.22	1066.11
529.58	1071.50
529.93	1069.62
530.29	1071.50
530.65	1081.56
531.00	1080.39
531.36	1074.07
531.71	1079.69
532.07	1077.82
532.43	1066.35
532.78	1067.05
533.14	1069.62
533.49	1061.20
533.85	1062.60
534.21	1066.82
534.56	1077.35
534.92	1074.31
535.27	1087.65
535.63	1086.71
535.98	1089.05
536.34	1092.09
536.69	1086.94
537.05	1080.39
537.41	1082.03
537.76	1092.33
538.12	1081.09
538.47	1087.41
538.83	1086.24
539.18	1081.09
539.54	1073.60
539.89	1074.07
540.25	1085.31
540.60	1091.16
540.96	1095.37
541.31	1096.31
541.67	1098.41
542.02	1080.86
542.38	1073.37
542.73	1077.11
543.09	1074.77
543.44	1079.46
543.80	1091.39
544.15	1089.75
544.51	1078.99
544.86	1077.11
545.22	1069.39
545.57	1068.45
545.93	1072.43
546.28	1079.46
546.64	1078.75
546.99	1083.20
547.35	1071.26
547.70	1076.88
548.05	1076.88
548.41	1076.18
548.76	1056.05
549.12	1067.75
549.47	1050.20
549.83	1034.75
550.18	1035.69
550.53	1055.82
550.89	1055.82
551.24	1069.16
551.60	1084.37
551.95	1086.71
552.30	1090.22
552.66	1088.12
553.01	1087.18
553.37	1084.14
553.72	1081.80
554.07	1071.26
554.43	1073.60
554.78	1084.14
555.13	1081.56
555.49	1078.52
555.84	1078.75
556.19	1075.94
556.55	1067.75
556.90	1068.22
557.26	1071.97
557.61	1084.14
557.96	1087.41
558.32	1080.16
558.67	1085.54
559.02	1082.73
559.37	1078.28
559.73	1080.86
560.08	1077.58
560.43	1071.50
560.79	1072.90
561.14	1071.50
561.49	1064.01
561.85	1071.50
562.20	1075.71
562.55	1079.92
562.90	1073.60
563.26	1078.05
563.61	1076.65
563.96	1086.01
564.32	1082.26
564.67	1086.24
565.02	1086.48
565.37	1084.84
565.73	1064.94
566.08	1067.75
566.43	1063.07
566.78	1058.16
567.14	1056.52
567.49	1076.41
567.84	1075.24
568.19	1082.97
568.54	1082.97
568.90	1085.77
569.25	1071.97
569.60	1070.56
569.95	1056.52
570.31	1056.52
570.66	1058.86
571.01	1055.35
571.36	1054.18
571.71	1074.54
572.06	1060.50
572.42	1059.09
572.77	1071.73
573.12	1073.14
573.47	1063.07
573.82	1074.77
574.18	1072.20
574.53	1060.03
574.88	1067.99
575.23	1072.43
575.58	1073.37
575.93	1070.09
576.28	1079.46
576.64	1073.84
576.99	1083.20
577.34	1083.20
577.69	1084.60
578.04	1079.22
578.39	1082.73
578.74	1073.60
579.09	1079.22
579.44	1083.90
579.80	1084.14
580.15	1075.24
580.50	1070.09
580.85	1067.99
581.20	1065.41
581.55	1060.73
581.90	1067.99
582.25	1066.82
582.60	1063.54
582.95	1069.62
583.30	1069.86
583.65	1061.43
584.00	1061.67
584.35	1070.56
584.71	1063.31
585.06	1074.77
585.41	1072.20
585.76	1076.18
586.11	1062.84
586.46	1070.56
586.81	1065.18
587.16	1068.69
587.51	1072.90
587.86	1087.18
588.21	1080.39
588.56	1078.99
588.91	1085.07
589.26	1087.41
589.61	1080.16
589.96	1075.48
590.31	1071.26
590.66	1069.16
591.01	1059.33
591.36	1062.37
591.71	1081.09
592.06	1090.92
592.41	1096.31
592.76	1108.24
593.10	1103.56
593.45	1093.26
593.80	1093.50
594.15	1088.35
594.50	1078.52
594.85	1084.60
595.20	1079.92
595.55	1076.65
595.90	1083.20
596.25	1085.31
596.60	1075.71
596.95	1075.94
597.30	1075.71
597.64	1119.01
597.99	1115.27
598.34	1119.48
598.69	1122.99
599.04	1123.46
599.39	1066.11
599.74	1067.52
600.09	1073.84
600.44	1069.62
600.78	1073.37
601.13	1084.84
601.48	1082.97
601.83	1077.82
602.18	1081.33
602.53	1082.26
602.88	1083.20
603.22	1089.99
603.57	1093.03
603.92	1100.29
604.27	1104.26
604.62	1102.39
604.97	1099.82
605.31	1099.35
605.66	1084.60
606.01	1070.09
606.36	1062.14
606.71	1065.65
607.05	1060.50
607.40	1062.37
607.75	1062.14
608.10	1067.75
608.44	1065.88
608.79	1063.07
609.14	1064.71
609.49	1065.88
609.84	1064.48
610.18	1061.43
610.53	1062.14
610.88	1075.01
611.23	1084.14
611.57	1095.37
611.92	1100.75
612.27	1107.78
612.62	1119.24
612.96	1115.03
613.31	1103.56
613.66	1099.12
614.00	1101.69
614.35	1090.22
614.70	1088.12
615.05	1092.09
615.39	1091.39
615.74	1079.92
616.09	1067.75
616.43	1067.52
616.78	1060.03
617.13	1063.77
617.47	1077.82
617.82	1080.63
618.17	1073.84
618.51	1067.99
618.86	1070.09
619.21	1051.84
619.55	1046.92
619.90	1049.96
620.25	1063.54
620.59	1058.86
620.94	1071.03
621.29	1070.09
621.63	1080.39
621.98	1080.39
622.32	1068.69
622.67	1063.54
623.02	1074.31
623.36	1072.90
623.71	1075.94
624.05	1093.03
624.40	1098.65
624.75	1088.58
625.09	1083.20
625.44	1075.48
625.78	1061.67
626.13	1052.07
626.48	1060.26
626.82	1064.01
627.17	1071.03
627.51	1083.90
627.86	1087.18
628.20	1086.01
628.55	1085.54
628.89	1078.75
629.24	1072.20
629.58	1078.52
629.93	1084.37
630.28	1087.65
630.62	1089.52
630.97	1092.09
631.31	1098.41
631.66	1098.18
632.00	1095.60
632.35	1095.37
632.69	1090.69
633.04	1084.37
633.38	1079.22
633.73	1077.58
634.07	1072.67
634.42	1078.28
634.76	1081.09
635.11	1082.03
635.45	1075.24
635.79	1075.01
636.14	1082.97
636.48	1073.14
636.83	1072.20
637.17	1078.99
637.52	1078.75
637.86	1062.14
638.21	1069.62
638.55	1066.35
638.89	1055.58
639.24	1057.92
639.58	1059.56
639.93	1056.52
640.27	1060.73
640.61	1068.22
640.96	1066.58
641.30	1068.22
641.65	1067.99
641.99	1061.43
642.33	1058.16
642.68	1058.16
643.02	1055.35
643.37	1049.50
643.71	1051.84
644.05	1064.01
644.40	1062.37
644.74	1071.26
645.08	1091.39
645.43	1097.95
645.77	1087.88
646.11	1092.56
646.46	1088.12
646.80	1070.33
647.14	1055.35
647.49	1057.69
647.83	1061.20
648.17	1061.20
648.52	1072.43
648.86	1079.22
649.20	1076.65
649.55	1082.73
649.89	1081.56
650.23	1072.20
650.57	1075.24
650.92	1082.97
651.26	1064.48
651.60	1067.99
651.95	1064.48
652.29	1065.65
652.63	1058.16
652.97	1060.73
653.32	1060.03
653.66	1071.26
654.00	1072.90
654.34	1074.54
654.69	1079.69
655.03	1082.26
655.37	1070.80
655.71	1067.52
656.05	1070.33
656.40	1071.03
656.74	1067.52
657.08	1075.48
657.42	1077.82
657.76	1075.71
658.11	1073.14
658.45	1075.94
658.79	1070.33
659.13	1071.73
659.47	1067.28
659.82	1077.35
660.16	1073.84
660.50	1077.58
660.84	1076.65
661.18	1090.69
661.52	1089.52
661.87	1098.18
662.21	1101.46
662.55	1098.41
662.89	1095.60
663.23	1089.99
663.57	1094.20
663.91	1085.54
664.25	1084.14
664.60	1078.05
664.94	1080.86
665.28	1071.97
665.62	1083.90
665.96	1092.80
666.30	1093.26
666.64	1084.60
666.98	1083.43
667.32	1072.90
667.66	1059.79
668.01	1056.05
668.35	1059.79
668.69	1059.09
669.03	1050.90
669.37	1056.99
669.71	1059.09
670.05	1054.65
670.39	1049.50
670.73	1056.28
671.07	1061.43
671.41	1069.39
671.75	1075.01
672.09	1077.82
672.43	1078.75
672.77	1066.11
673.11	1070.80
673.45	1071.97
673.79	1071.03
674.13	1087.18
674.47	1097.71
674.81	1088.82
675.15	1085.77
675.49	1085.77
675.83	1080.16
676.17	1075.71
676.51	1077.58
676.85	1082.26
677.19	1089.99
677.53	1080.63
677.87	1082.73
678.21	1086.48
678.55	1086.48
678.89	1082.03
679.23	1078.28
679.57	1078.75
679.90	1073.37
680.24	1066.82
680.58	1060.96
680.92	1071.03
681.26	1081.80
681.60	1080.39
681.94	1081.09
682.28	1082.03
682.62	1067.28
682.96	1063.31
683.29	1058.39
683.63	1059.56
683.97	1067.05
684.31	1079.46
684.65	1063.31
684.99	1072.43
685.33	1079.69
685.67	1081.56
686.00	1077.35
686.34	1082.03
686.68	1075.71
687.02	1080.86
687.36	1072.67
687.70	1075.48
688.03	1083.43
688.37	1081.56
688.71	1068.22
689.05	1075.24
689.39	1083.90
689.72	1087.65
690.06	1085.54
690.40	1086.94
690.74	1080.16
691.08	1067.52
691.41	1063.54
691.75	1072.43
692.09	1068.45
692.43	1065.18
692.76	1062.84
693.10	1068.69
693.44	1071.26
693.78	1071.26
694.11	1074.77
694.45	1077.82
694.79	1071.26
695.13	1062.37
695.46	1075.24
695.80	1071.50
696.14	1074.54
696.48	1071.26
696.81	1077.11
697.15	1067.28
697.49	1068.92
697.82	1071.50
698.16	1078.99
698.50	1078.52
698.83	1085.54
699.17	1092.33
699.51	1081.80
699.84	1071.03
700.18	1074.07
700.52	1065.65
700.85	1067.28
701.19	1077.35
701.53	1086.94
701.86	1093.26
702.20	1094.43
702.54	1083.20
702.87	1075.48
703.21	1063.54
703.55	1058.86
703.88	1065.88
704.22	1070.33
704.55	1071.26
704.89	1076.18
705.23	1069.62
705.56	1070.33
705.90	1069.16
706.23	1065.65
706.57	1059.56
706.91	1055.35
707.24	1050.90
707.58	1054.41
707.91	1062.14
708.25	1077.58
708.58	1094.43
708.92	1102.86
709.26	1093.73
709.59	1104.97
709.93	1104.97
710.26	1086.48
710.60	1082.03
710.93	1087.88
711.27	1072.90
711.60	1062.84
711.94	1076.65
712.27	1084.37
712.61	1079.92
712.94	1086.24
713.28	1088.35
713.61	1086.01
713.95	1075.94
714.28	1081.56
714.62	1076.88
714.95	1081.09
715.29	1064.94
715.62	1065.65
715.96	1071.50
716.29	1086.01
716.63	1087.41
716.96	1093.26
717.29	1091.86
717.63	1089.05
717.96	1072.20
718.30	1064.01
718.63	1071.97
718.97	1067.99
719.30	1070.33
719.63	1075.01
719.97	1077.11
720.30	1069.16
720.64	1075.71
720.97	1073.14
721.30	1078.28
721.64	1072.67
721.97	1070.56
722.31	1059.09
722.64	1055.82
722.97	1045.28
723.31	1047.62
723.64	1058.39
723.97	1069.39
724.31	1070.56
724.64	1062.60
724.98	1064.24
725.31	1065.41
725.64	1066.82
725.98	1070.80
726.31	1081.56
726.64	1086.94
726.97	1077.82
727.31	1070.09
727.64	1069.62
727.97	1076.88
728.31	1068.22
728.64	1067.52
728.97	1067.28
729.31	1060.03
729.64	1056.52
729.97	1064.48
730.30	1068.92
730.64	1073.60
730.97	1084.60
731.30	1088.58
731.63	1079.69
731.97	1069.86
732.30	1064.01
732.63	1066.11
732.96	1056.75
733.30	1056.28
733.63	1064.01
733.96	1075.71
734.29	1070.09
734.63	1082.73
734.96	1092.80
735.29	1094.43
735.62	1080.63
735.95	1070.09
736.29	1068.69
736.62	1071.97
736.95	1073.84
737.28	1079.92
737.61	1094.67
737.94	1085.77
738.28	1081.33
738.61	1081.56
738.94	1074.77
739.27	1067.75
739.60	1069.62
739.93	1068.22
740.27	1069.16
740.60	1073.60
740.93	1086.71
741.26	1089.29
741.59	1085.54
741.92	1086.71
742.25	1098.18
742.58	1081.80
742.91	1079.92
743.25	1083.90
743.58	1085.54
743.91	1081.33
744.24	1097.01
744.57	1093.03
744.90	1097.01
745.23	1097.01
745.56	1087.18
745.89	1081.33
746.22	1074.07
746.55	1066.35
746.88	1059.79
747.21	1063.07
747.54	1056.99
747.87	1074.31
748.20	1074.77
748.53	1076.88
748.87	1075.48
749.20	1072.20
749.53	1062.60
749.86	1070.56
750.19	1067.05
750.52	1079.46
750.85	1080.39
751.18	1085.77
751.51	1083.90
751.84	1088.35
752.16	1078.05
752.49	1077.11
752.82	1074.07
753.15	1067.99
753.48	1063.77
753.81	1066.35
754.14	1075.24
754.47	1082.97
754.80	1086.94
755.13	1079.46
755.46	1081.09
755.79	1080.63
756.12	1068.92
756.45	1064.71
756.78	1071.03
757.11	1064.71
757.43	1054.18
757.76	1057.45
758.09	1058.86
758.42	1057.45
758.75	1059.79
759.08	1064.24
759.41	1060.26
759.74	1064.24
760.07	1068.92
760.39	1072.20
760.72	1070.33
761.05	1074.07
761.38	1059.33
761.71	1057.92
762.04	1059.09
762.36	1062.84
762.69	1065.18
763.02	1071.26
763.35	1078.99
763.68	1072.90
764.01	1076.88
764.33	1080.86
764.66	1082.73
764.99	1076.65
765.32	1077.58
765.65	1077.82
765.97	1074.54
766.30	1082.73
766.63	1091.63
766.96	1106.84
767.28	1102.39
767.61	1104.26
767.94	1100.52
768.27	1092.56
768.59	1080.39
768.92	1077.58
769.25	1064.01
769.58	1064.24
769.90	1065.65
770.23	1071.50
770.56	1072.43
770.89	1086.71
771.21	1084.60
771.54	1082.73
771.87	1067.52
772.19	1067.99
772.52	1062.37
772.85	1064.48
773.17	1060.03
773.50	1064.94
773.83	1067.52
774.15	1067.28
774.48	1073.14
774.81	1079.92
775.13	1083.67
775.46	1084.37
775.79	1084.60
776.11	1080.16
776.44	1076.88
776.77	1084.60
777.09	1085.54
777.42	1085.77
777.74	1086.71
778.07	1084.37
778.40	1074.77
778.72	1074.77
779.05	1076.18
779.37	1073.37
779.70	1085.31
780.03	1082.50
780.35	1079.22
780.68	1083.67
781.00	1086.01
781.33	1078.75
781.65	1086.24
781.98	1089.52
782.31	1088.12
782.63	1086.01
782.96	1074.54
783.28	1066.58
783.61	1063.31
783.93	1062.14
784.26	1065.88
784.58	1077.11
784.91	1080.86
785.23	1085.54
785.56	1087.18
785.88	1081.09
786.21	1087.41
786.53	1082.26
786.86	1075.71
787.18	1079.92
787.51	1082.73
787.83	1082.26
788.16	1088.82
788.48	1094.67
788.81	1093.26
789.13	1091.86
789.46	1090.92
789.78	1094.43
790.10	1092.56
790.43	1088.12
790.75	1098.18
791.08	1089.05
791.40	1078.52
791.73	1084.14
792.05	1075.94
792.37	1070.33
792.70	1077.82
793.02	1077.58
793.35	1064.94
793.67	1067.52
793.99	1068.45
794.32	1065.88
794.64	1081.33
794.96	1091.16
795.29	1090.92
795.61	1082.26
795.93	1084.60
796.26	1074.31
796.58	1071.03
796.91	1072.90
797.23	1076.65
797.55	1068.45
797.87	1063.54
798.20	1070.33
798.52	1080.86
798.84	1069.16
799.17	1074.07
799.49	1082.97
799.81	1082.26
800.14	1067.99
800.46	1073.14
800.78	1067.05
801.10	1066.11
801.43	1060.03
801.75	1055.35
802.07	1064.71
802.40	1070.80
802.72	1074.54
803.04	1072.67
803.36	1084.14
803.69	1087.65
804.01	1091.63
804.33	1082.50
804.65	1074.07
804.97	1065.88
805.30	1058.86
805.62	1049.03
805.94	1052.54
806.26	1055.82
806.58	1050.90
806.91	1051.84
807.23	1053.71
807.55	1052.54
807.87	1053.48
808.19	1057.22
808.52	1052.54
808.84	1060.96
809.16	1068.22
809.48	1068.69
809.80	1079.46
810.12	1083.20
810.44	1082.97
810.77	1080.63
811.09	1074.07
811.41	1075.24
811.73	1082.97
812.05	1086.01
812.37	1086.24
812.69	1102.16
813.01	1093.97
813.33	1090.46
813.66	1083.67
813.98	1082.50
814.30	1080.39
814.62	1090.69
814.94	1087.41
815.26	1079.46
815.58	1076.41
815.90	1074.07
816.22	1068.92
816.54	1063.77
816.86	1072.43
817.18	1075.94
817.50	1090.22
817.82	1098.88
818.14	1103.33
818.46	1108.95
818.78	1110.58
819.10	1097.95
819.42	1080.39
819.74	1083.67
820.06	1077.11
820.38	1065.18
820.70	1066.11
821.02	1076.88
821.34	1077.35
821.66	1085.07
821.98	1095.60
822.30	1090.92
822.62	1092.33
822.94	1093.03
823.26	1078.75
823.58	1086.94
823.90	1089.99
824.22	1087.88
824.54	1087.41
824.86	1090.69
825.18	1078.52
825.50	1071.73
825.81	1067.99
826.13	1060.26
826.45	1064.71
826.77	1071.73
827.09	1085.31
827.41	1085.31
827.73	1090.46
828.05	1083.90
828.36	1073.84
828.68	1060.73
829.00	1065.65
829.32	1068.22
829.64	1072.43
829.96	1086.01
830.28	1086.94
830.59	1082.73
830.91	1089.99
831.23	1087.41
831.55	1080.39
831.87	1089.52
832.19	1096.07
832.50	1086.94
832.82	1088.12
833.14	1087.88
833.46	1078.28
833.78	1073.14
834.09	1071.73
834.41	1074.77
834.73	1067.52
835.05	1073.37
835.36	1075.71
835.68	1077.11
836.00	1070.09
836.32	1079.69
836.63	1078.28
836.95	1082.26
837.27	1079.92
837.59	1088.58
837.90	1078.75
838.22	1081.33
838.54	1077.58
838.85	1084.14
839.17	1083.90
839.49	1089.29
839.80	1088.58
840.12	1079.46
840.44	1071.97
840.76	1070.56
841.07	1073.84
841.39	1078.75
841.71	1082.50
842.02	1082.26
842.34	1079.69
842.65	1081.56
842.97	1072.43
843.29	1079.22
843.60	1075.94
843.92	1074.31
844.24	1069.39
844.55	1078.05
844.87	1073.84
845.18	1077.11
845.50	1075.94
845.82	1084.14
846.13	1068.22
846.45	1069.86
846.76	1066.82
847.08	1072.67
847.40	1067.28
847.71	1071.50
848.03	1064.94
848.34	1068.92
848.66	1062.37
848.97	1061.20
849.29	1070.80
849.60	1062.60
849.92	1063.77
850.24	1065.88
850.55	1070.09
850.87	1072.67
851.18	1088.58
851.50	1090.46
851.81	1093.97
852.13	1077.11
852.44	1068.69
852.76	1066.58
853.07	1063.77
853.39	1057.92
853.70	1068.22
854.01	1053.71
854.33	1048.79
854.64	1048.79
854.96	1049.26
855.27	1051.37
855.59	1070.80
855.90	1077.35
856.22	1069.39
856.53	1067.52
856.84	1066.35
857.16	1056.75
857.47	1054.88
857.79	1064.94
858.10	1071.26
858.41	1068.92
858.73	1074.54
859.04	1076.88
859.36	1079.69
859.67	1081.09
859.98	1086.94
860.30	1089.52
860.61	1087.65
860.92	1089.52
861.24	1089.52
861.55	1091.86
861.87	1090.22
862.18	1097.01
862.49	1095.84
862.81	1100.05
863.12	1094.67
863.43	1093.97
863.74	1088.82
864.06	1087.88
864.37	1083.90
864.68	1096.31
865.00	1106.37
865.31	1102.63
865.62	1096.31
865.94	1093.03
866.25	1077.11
866.56	1072.67
866.87	1075.94
867.19	1075.71
867.50	1073.84
867.81	1075.24
868.12	1068.45
868.44	1069.39
868.75	1081.33
869.06	1086.94
869.37	1088.82
869.68	1093.26
870.00	1091.86
870.31	1076.41
870.62	1075.24
870.93	1072.90
871.24	1067.05
871.56	1070.80
871.87	1081.33
872.18	1085.31
872.49	1084.84
872.80	1089.75
873.12	1082.97
873.43	1077.82
873.74	1078.28
874.05	1082.26
874.36	1080.86
874.67	1093.73
874.98	1095.37
875.29	1087.41
875.61	1089.52
875.92	1087.65
876.23	1068.45
876.54	1074.31
876.85	1079.69
877.16	1074.77
877.47	1066.35
877.78	1079.92
878.09	1076.65
878.40	1073.37
878.72	1072.90
879.03	1083.90
879.34	1086.71
879.65	1079.69
879.96	1079.22
880.27	1076.41
880.58	1068.92
880.89	1063.07
881.20	1057.92
881.51	1062.14
881.82	1067.75
882.13	1084.84
882.44	1075.71
882.75	1085.54
883.06	1080.63
883.37	1075.94
883.68	1062.84
883.99	1064.94
884.30	1067.28
884.61	1062.37
884.92	1073.84
885.23	1074.07
885.54	1080.16
885.85	1072.67
886.16	1075.24
886.47	1079.46
886.78	1083.90
887.08	1086.01
887.39	1098.65
887.70	1095.14
888.01	1079.22
888.32	1076.65
888.63	1078.28
888.94	1069.62
889.25	1081.56
889.56	1083.43
889.87	1075.24
890.17	1071.26
890.48	1066.82
890.79	1068.69
891.10	1075.01
891.41	1084.37
891.72	1080.39
892.03	1089.99
892.34	1084.60
892.64	1078.05
892.95	1067.05
893.26	1067.99
893.57	1064.94
893.88	1069.86
894.18	1072.20
894.49	1083.20
894.80	1084.84
895.11	1088.35
895.42	1080.16
895.72	1078.28
896.03	1077.35
896.34	1069.39
896.65	1064.71
896.96	1074.31
897.26	1073.60
897.57	1080.63
897.88	1084.37
898.19	1086.48
898.49	1080.63
898.80	1082.03
899.11	1069.62
899.41	1090.92
899.72	1087.88
900.03	1089.52
900.34	1090.46
900.64	1096.54
900.95	1074.77
901.26	1069.39
901.56	1067.52
901.87	1072.90
902.18	1078.52
902.48	1078.05
902.79	1085.31
903.10	1085.07
903.40	1073.60
903.71	1067.99
904.02	1068.92
904.32	1060.50
904.63	1055.11
904.94	1060.26
905.24	1064.24
905.55	1064.24
905.85	1071.26
906.16	1068.45
906.47	1068.22
906.77	1060.50
907.08	1068.45
907.38	1072.20
907.69	1077.35
908.00	1078.05
908.30	1085.54
908.61	1075.71
908.91	1065.18
909.22	1067.05
909.52	1066.11
909.83	1056.99
910.14	1064.24
910.44	1074.54
910.75	1076.88
911.05	1083.43
911.36	1080.16
911.66	1088.82
911.97	1086.71
912.27	1089.52
912.58	1087.18
912.88	1097.48
913.19	1095.84
913.49	1100.99
913.80	1099.12
914.10	1105.67
914.41	1109.88
914.71	1096.78
915.01	1092.33
915.32	1084.84
915.62	1073.60
915.93	1074.31
916.23	1074.77
916.54	1072.67
916.84	1078.05
917.15	1074.54
917.45	1059.09
917.75	1056.75
918.06	1051.13
918.36	1040.13
918.67	1034.98
918.97	1040.60
919.27	1050.43
919.58	1052.77
919.88	1067.28
920.18	1074.07
920.49	1071.03
920.79	1077.11
921.10	1081.56
921.40	1075.94
921.70	1085.07
922.01	1097.95
922.31	1102.39
922.61	1100.75
922.92	1107.07
923.22	1096.31
923.52	1091.16
923.82	1083.20
924.13	1082.73
924.43	1072.20
924.73	1069.16
925.04	1068.45
925.34	1057.45
925.64	1065.65
925.94	1067.52
926.25	1077.35
926.55	1078.99
926.85	1087.41
927.15	1079.22
927.46	1086.71
927.76	1085.31
928.06	1092.56
928.36	1089.75
928.67	1081.80
928.97	1082.73
929.27	1086.48
929.57	1080.63
929.87	1079.22
930.18	1089.05
930.48	1071.97
930.78	1076.65
931.08	1076.18
931.38	1073.84
931.69	1071.73
931.99	1079.92
932.29	1069.62
932.59	1067.05
932.89	1072.67
933.19	1071.03
933.49	1067.05
933.80	1063.54
934.10	1062.84
934.40	1066.58
934.70	1068.69
935.00	1070.80
935.30	1068.92
935.60	1061.67
935.90	1049.50
936.20	1046.22
936.50	1048.09
936.81	1053.71
937.11	1053.94
937.41	1062.14
937.71	1057.69
938.01	1058.39
938.31	1062.60
938.61	1069.62
938.91	1065.65
939.21	1069.62
939.51	1070.56
939.81	1070.09
940.11	1081.80
940.41	1083.43
940.71	1091.63
941.01	1097.01
941.31	1092.80
941.61	1083.67
941.91	1082.26
942.21	1080.63
942.51	1068.92
942.81	1067.28
943.11	1060.50
943.41	1050.67
943.71	1049.50
944.01	1060.73
944.31	1082.26
944.61	1091.16
944.90	1101.46
945.20	1101.46
945.50	1100.05
945.80	1079.92
946.10	1085.54
946.40	1083.67
946.70	1082.50
947.00	1083.67
947.30	1090.69
947.60	1084.37
947.89	1090.92
948.19	1093.97
948.49	1097.24
948.79	1097.71
949.09	1093.26
949.39	1089.05
949.69	1079.46
949.98	1071.97
950.28	1071.73
950.58	1070.80
950.88	1065.18
951.18	1067.75
951.48	1071.50
951.77	1079.22
952.07	1079.22
952.37	1083.20
952.67	1089.05
952.97	1089.05
953.26	1077.82
953.56	1084.37
953.86	1092.56
954.16	1095.14
954.45	1089.99
954.75	1090.69
955.05	1071.26
955.35	1060.73
955.64	1057.92
955.94	1051.60
956.24	1044.58
956.54	1049.50
956.83	1053.94
957.13	1050.43
957.43	1055.58
957.72	1071.50
958.02	1081.80
958.32	1076.41
958.61	1072.20
958.91	1078.75
959.21	1065.65
959.50	1061.90
959.80	1084.84
960.10	1093.73
960.39	1094.67
960.69	1095.60
960.99	1097.71
961.28	1081.80
961.58	1075.94
961.87	1070.33
962.17	1081.56
962.47	1086.94
962.76	1075.48
963.06	1086.48
963.36	1089.29
963.65	1082.26
963.95	1077.82
964.24	1092.80
964.54	1094.43
964.83	1095.14
965.13	1093.50
965.42	1087.18
965.72	1083.43
966.02	1071.73
966.31	1072.43
966.61	1071.97
966.90	1069.62
967.20	1067.75
967.49	1077.35
967.79	1070.80
968.08	1064.01
968.38	1076.88
968.67	1080.16
968.97	1066.11
969.26	1075.71
969.56	1083.43
969.85	1076.41
970.15	1075.71
970.44	1081.33
970.74	1084.37
971.03	1086.24
971.32	1087.41
971.62	1082.26
971.91	1073.14
972.21	1062.84
972.50	1062.84
972.80	1062.60
973.09	1057.69
973.38	1064.48
973.68	1071.97
973.97	1073.14
974.27	1068.92
974.56	1079.46
974.85	1072.67
975.15	1068.69
975.44	1064.24
975.73	1070.33
976.03	1066.35
976.32	1071.50
976.61	1063.54
976.91	1062.84
977.20	1058.62
977.49	1051.60
977.79	1052.54
978.08	1055.58
978.37	1063.31
978.67	1071.50
978.96	1079.22
979.25	1086.01
979.55	1088.58
979.84	1077.58
980.13	1082.73
980.42	1075.71
980.72	1076.88
981.01	1072.67
981.30	1071.26
981.59	1053.01
981.89	1055.82
982.18	1054.41
982.47	1054.65
982.76	1059.79
983.06	1071.26
983.35	1083.20
983.64	1078.75
983.93	1087.65
984.22	1090.22
984.52	1086.71
984.81	1080.63
985.10	1079.69
985.39	1079.22
985.68	1080.63
985.97	1076.41
986.27	1089.05
986.56	1092.56
986.85	1097.95
987.14	1097.95
987.43	1104.26
987.72	1085.31
988.01	1084.60
988.31	1079.92
988.60	1077.58
988.89	1070.56
989.18	1079.46
989.47	1080.16
989.76	1073.14
990.05	1073.37
990.34	1075.48
990.63	1076.65
990.92	1078.28
991.21	1089.05
991.51	1086.24
991.80	1092.56
992.09	1092.80
992.38	1091.86
992.67	1082.97
992.96	1078.28
993.25	1067.52
993.54	1069.62
993.83	1064.01
994.12	1067.05
994.41	1068.22
994.70	1072.67
994.99	1072.90
995.28	1082.26
995.57	1076.65
995.86	1087.18
996.15	1088.82
996.44	1080.63
996.73	1075.24
997.02	1075.48
997.31	1074.31
997.59	1076.88
997.88	1077.11
998.17	1071.50
998.46	1079.46
998.75	1076.41
999.04	1085.31
999.33	1096.78
999.62	1103.09
999.91	1096.07
1000.20	1098.88
1000.49	1094.43
1000.77	1088.58
1001.06	1090.92
1001.35	1098.88
1001.64	1099.58
1001.93	1102.39
1002.22	1105.67
1002.51	1112.69
1002.79	1105.20
1003.08	1097.71
1003.37	1094.90
1003.66	1084.84
1003.95	1076.18
1004.23	1078.99
1004.52	1073.84
1004.81	1075.71
1005.10	1081.80
1005.39	1082.50
1005.67	1085.31
1005.96	1089.05
1006.25	1084.60
1006.54	1077.58
1006.83	1070.56
1007.11	1074.07
1007.40	1084.60
1007.69	1081.80
1007.97	1085.07
1008.26	1096.07
1008.55	1088.12
1008.84	1076.41
1009.12	1075.48
1009.41	1076.18
1009.70	1070.80
1009.98	1064.48
1010.27	1069.16
1010.56	1076.65
1010.85	1082.26
1011.13	1079.22
1011.42	1092.33
1011.71	1090.69
1011.99	1081.33
1012.28	1072.20
1012.56	1081.80
1012.85	1072.90
1013.14	1075.24
1013.42	1070.56
1013.71	1078.52
1014.00	1075.24
1014.28	1080.16
1014.57	1074.77
1014.85	1077.82
1015.14	1076.65
1015.43	1076.18
1015.71	1070.56
1016.00	1072.90
1016.28	1070.56
1016.57	1067.99
1016.85	1070.56
1017.14	1076.88
1017.43	1081.33
1017.71	1090.69
1018.00	1088.12
1018.28	1080.39
1018.57	1078.75
1018.85	1077.58
1019.14	1079.92
1019.42	1077.82
1019.71	1082.50
1019.99	1082.50
1020.28	1075.71
1020.56	1068.92
1020.85	1072.67
1021.13	1067.52
1021.42	1064.01
1021.70	1056.05
1021.99	1056.05
1022.27	1059.33
1022.55	1068.45
1022.84	1093.03
>>>>>End Processed Spectral Data<<<<<
