SpectraSuite Data File
++++++++++++++++++++++++++++++++++++
Date: Mon Aug 26 10:24:30 PDT 2019
User: corrico
Dark Spectrum Present: No
Reference Spectrum Present: No
Number of Sampled Component Spectra: 1
Spectrometers: USB2+H06089
Integration Time (usec): 10000 (USB2+H06089)
Spectra Averaged: 2 (USB2+H06089)
Boxcar Smoothing: 2 (USB2+H06089)
Correct for Electrical Dark: No (USB2+H06089)
Strobe/Lamp Enabled: No (USB2+H06089)
Correct for Detector Non-linearity: No (USB2+H06089)
Correct for Stray Light: No (USB2+H06089)
Number of Pixels in Processed Spectrum: 2048
>>>>>Begin Processed Spectral Data<<<<<
339.70	1015.79
340.07	1015.79
340.45	999.41
340.82	978.58
341.19	955.87
341.57	939.49
341.94	922.64
342.31	913.28
342.69	913.98
343.06	918.19
343.43	909.06
343.81	908.36
344.18	903.68
344.55	896.43
344.93	891.74
345.30	896.43
345.67	910.94
346.04	920.53
346.42	937.85
346.79	954.00
347.16	958.22
347.54	965.24
347.91	974.13
348.28	985.83
348.65	993.32
349.03	1012.98
349.40	1018.37
349.77	1026.56
350.14	1033.81
350.52	1041.77
350.89	1038.26
351.26	1042.94
351.63	1045.99
352.01	1041.07
352.38	1042.24
352.75	1055.82
353.12	1063.31
353.50	1067.99
353.87	1069.86
354.24	1076.18
354.61	1071.97
354.98	1061.90
355.36	1065.65
355.73	1074.77
356.10	1069.86
356.47	1082.03
356.84	1098.18
357.22	1094.67
357.59	1096.54
357.96	1099.35
358.33	1089.75
358.70	1082.03
359.08	1077.58
359.45	1067.99
359.82	1061.20
360.19	1059.79
360.56	1069.39
360.94	1075.71
361.31	1075.24
361.68	1074.77
362.05	1084.37
362.42	1078.28
362.79	1078.75
363.16	1080.86
363.54	1083.67
363.91	1076.88
364.28	1076.41
364.65	1079.22
365.02	1090.46
365.39	1089.99
365.76	1086.01
366.14	1077.58
366.51	1066.82
366.88	1053.94
367.25	1049.73
367.62	1058.62
367.99	1066.58
368.36	1073.84
368.73	1081.80
369.10	1086.24
369.48	1077.58
369.85	1069.86
370.22	1065.88
370.59	1053.48
370.96	1042.71
371.33	1050.43
371.70	1054.65
372.07	1058.86
372.44	1064.71
372.81	1078.28
373.18	1060.03
373.55	1055.11
373.93	1054.65
374.30	1064.01
374.67	1061.20
375.04	1071.73
375.41	1073.37
375.78	1072.90
376.15	1067.05
376.52	1067.52
376.89	1064.71
377.26	1064.48
377.63	1068.22
378.00	1071.50
378.37	1072.43
378.74	1070.56
379.11	1079.92
379.48	1075.71
379.85	1075.01
380.22	1074.07
380.59	1083.67
380.96	1068.92
381.33	1065.65
381.70	1060.73
382.07	1060.26
382.44	1058.86
382.81	1069.86
383.18	1078.99
383.55	1084.14
383.92	1082.03
384.29	1079.46
384.66	1079.69
385.03	1075.01
385.40	1070.09
385.77	1070.80
386.14	1066.58
386.51	1056.99
386.88	1058.62
387.25	1067.05
387.62	1072.90
387.99	1078.75
388.36	1082.73
388.73	1079.46
389.10	1061.20
389.46	1060.73
389.83	1066.35
390.20	1067.75
390.57	1070.09
390.94	1084.60
391.31	1084.14
391.68	1078.05
392.05	1068.69
392.42	1066.58
392.79	1057.69
393.16	1055.35
393.53	1053.48
393.89	1065.18
394.26	1065.88
394.63	1070.09
395.00	1073.14
395.37	1070.80
395.74	1056.05
396.11	1046.45
396.48	1047.16
396.84	1047.39
397.21	1049.73
397.58	1065.88
397.95	1085.54
398.32	1082.26
398.69	1086.24
399.06	1088.82
399.42	1085.31
399.79	1070.09
400.16	1068.69
400.53	1066.58
400.90	1064.01
401.27	1064.24
401.64	1077.35
402.00	1084.84
402.37	1082.97
402.74	1085.77
403.11	1073.84
403.48	1070.09
403.84	1072.20
404.21	1074.77
404.58	1071.50
404.95	1085.54
405.32	1080.39
405.68	1073.14
406.05	1067.52
406.42	1076.65
406.79	1069.39
407.16	1070.80
407.52	1072.43
407.89	1083.90
408.26	1076.65
408.63	1080.16
408.99	1079.69
409.36	1083.43
409.73	1078.28
410.10	1084.37
410.47	1083.20
410.83	1092.09
411.20	1099.12
411.57	1091.63
411.94	1085.54
412.30	1088.35
412.67	1086.48
413.04	1075.94
413.40	1078.99
413.77	1087.65
414.14	1084.84
414.51	1077.35
414.87	1072.43
415.24	1070.09
415.61	1067.99
415.97	1078.52
416.34	1078.99
416.71	1074.07
417.08	1075.94
417.44	1069.62
417.81	1056.99
418.18	1055.35
418.54	1072.90
418.91	1071.73
419.28	1069.62
419.64	1076.41
420.01	1071.50
420.38	1070.56
420.74	1069.62
421.11	1075.48
421.48	1081.33
421.84	1084.37
422.21	1077.35
422.58	1082.03
422.94	1083.43
423.31	1089.75
423.68	1102.63
424.04	1113.16
424.41	1119.95
424.77	1118.31
425.14	1112.92
425.51	1108.71
425.87	1101.92
426.24	1090.22
426.61	1093.73
426.97	1087.41
427.34	1086.71
427.70	1087.41
428.07	1091.16
428.44	1091.63
428.80	1082.26
429.17	1084.14
429.53	1086.71
429.90	1096.07
430.27	1093.26
430.63	1106.37
431.00	1117.84
431.36	1125.33
431.73	1120.88
432.09	1120.65
432.46	1119.01
432.83	1105.20
433.19	1108.71
433.56	1114.80
433.92	1123.93
434.29	1132.59
434.65	1150.84
435.02	1142.18
435.38	1133.05
435.75	1127.67
436.11	1131.41
436.48	1132.12
436.84	1137.97
437.21	1144.76
437.57	1150.37
437.94	1151.54
438.30	1137.73
438.67	1132.59
439.03	1131.41
439.40	1138.90
439.76	1138.90
440.13	1145.22
440.49	1148.97
440.86	1155.29
441.22	1144.05
441.59	1143.82
441.95	1133.52
442.32	1134.69
442.68	1130.71
443.05	1134.22
443.41	1129.07
443.78	1137.73
444.14	1141.01
444.51	1151.78
444.87	1145.93
445.24	1137.27
445.60	1130.24
445.96	1121.12
446.33	1102.86
446.69	1103.80
447.06	1106.61
447.42	1111.52
447.79	1109.41
448.15	1115.50
448.51	1119.71
448.88	1123.69
449.24	1122.52
449.61	1124.16
449.97	1123.69
450.33	1119.71
450.70	1121.58
451.06	1117.14
451.43	1114.80
451.79	1112.46
452.15	1113.39
452.52	1100.99
452.88	1095.60
453.24	1093.73
453.61	1096.54
453.97	1084.37
454.34	1096.78
454.70	1103.33
455.06	1100.05
455.43	1095.60
455.79	1107.78
456.15	1097.48
456.52	1083.67
456.88	1093.26
457.24	1093.26
457.61	1093.73
457.97	1096.54
458.33	1101.69
458.70	1095.37
459.06	1092.56
459.42	1089.29
459.79	1089.75
460.15	1092.80
460.51	1096.78
460.88	1095.60
461.24	1094.90
461.60	1090.22
461.96	1089.75
462.33	1084.60
462.69	1089.99
463.05	1089.99
463.42	1096.78
463.78	1090.92
464.14	1098.18
464.50	1087.41
464.87	1086.24
465.23	1088.58
465.59	1095.84
465.95	1088.12
466.32	1094.90
466.68	1099.58
467.04	1080.39
467.40	1077.11
467.77	1080.16
468.13	1085.77
468.49	1070.80
468.85	1079.46
469.22	1084.14
469.58	1076.41
469.94	1064.48
470.30	1082.50
470.66	1083.67
471.03	1078.52
471.39	1082.97
471.75	1079.92
472.11	1076.18
472.47	1081.33
472.84	1085.31
473.20	1086.24
473.56	1094.43
473.92	1086.71
474.28	1081.56
474.65	1075.01
475.01	1075.48
475.37	1071.26
475.73	1076.18
476.09	1066.82
476.45	1070.56
476.81	1073.14
477.18	1078.75
477.54	1075.94
477.90	1092.09
478.26	1099.82
478.62	1100.75
478.98	1092.33
479.34	1088.12
479.71	1086.94
480.07	1083.43
480.43	1072.90
480.79	1077.58
481.15	1081.33
481.51	1082.26
481.87	1087.18
482.23	1097.01
482.59	1097.01
482.96	1084.60
483.32	1083.43
483.68	1075.48
484.04	1069.39
484.40	1063.54
484.76	1082.26
485.12	1083.90
485.48	1088.82
485.84	1091.86
486.20	1102.86
486.56	1094.90
486.92	1079.69
487.28	1078.28
487.64	1068.22
488.00	1066.82
488.37	1058.62
488.73	1072.90
489.09	1075.94
489.45	1085.31
489.81	1082.50
490.17	1098.18
490.53	1096.78
490.89	1089.52
491.25	1083.20
491.61	1083.67
491.97	1072.43
492.33	1060.96
492.69	1059.33
493.05	1067.52
493.41	1070.80
493.77	1072.43
494.13	1077.58
494.49	1084.60
494.85	1077.58
495.21	1081.56
495.57	1086.94
495.93	1084.84
496.29	1088.82
496.64	1092.56
497.00	1091.86
497.36	1093.73
497.72	1094.20
498.08	1085.77
498.44	1086.01
498.80	1091.39
499.16	1095.14
499.52	1104.97
499.88	1107.54
500.24	1104.73
500.60	1092.09
500.96	1076.65
501.32	1073.14
501.68	1064.24
502.03	1059.79
502.39	1064.94
502.75	1065.18
503.11	1059.33
503.47	1072.20
503.83	1081.09
504.19	1062.60
504.55	1066.35
504.91	1067.75
505.26	1071.50
505.62	1066.35
505.98	1071.03
506.34	1080.63
506.70	1079.69
507.06	1066.82
507.42	1070.80
507.78	1076.41
508.13	1075.48
508.49	1076.65
508.85	1074.54
509.21	1076.41
509.57	1083.43
509.93	1075.01
510.28	1079.22
510.64	1091.16
511.00	1097.24
511.36	1098.18
511.72	1101.46
512.07	1110.35
512.43	1101.69
512.79	1095.60
513.15	1096.07
513.51	1094.20
513.86	1083.67
514.22	1085.54
514.58	1079.92
514.94	1069.62
515.30	1071.26
515.65	1073.14
516.01	1062.84
516.37	1072.43
516.73	1082.03
517.08	1080.63
517.44	1079.92
517.80	1084.14
518.16	1082.50
518.51	1078.75
518.87	1076.18
519.23	1072.43
519.59	1075.48
519.94	1079.22
520.30	1076.41
520.66	1079.22
521.01	1070.80
521.37	1070.56
521.73	1064.94
522.09	1065.41
522.44	1053.01
522.80	1063.07
523.16	1064.94
523.51	1057.22
523.87	1059.56
524.23	1070.33
524.58	1068.92
524.94	1071.97
525.30	1076.18
525.65	1077.11
526.01	1086.71
526.37	1090.22
526.72	1086.24
527.08	1084.84
527.44	1081.56
527.79	1082.73
528.15	1073.37
528.51	1075.01
528.86	1073.84
529.22	1084.14
529.58	1078.75
529.93	1083.43
530.29	1090.46
530.65	1092.56
531.00	1084.14
531.36	1079.92
531.71	1084.84
532.07	1082.03
532.43	1086.24
532.78	1093.97
533.14	1100.99
533.49	1094.90
533.85	1098.88
534.21	1098.18
534.56	1086.94
534.92	1089.52
535.27	1092.09
535.63	1078.28
535.98	1073.14
536.34	1079.69
536.69	1060.03
537.05	1062.14
537.41	1066.35
537.76	1064.94
538.12	1056.99
538.47	1067.05
538.83	1064.24
539.18	1065.18
539.54	1071.03
539.89	1076.18
540.25	1082.50
540.60	1079.46
540.96	1071.50
541.31	1071.97
541.67	1070.09
542.02	1075.01
542.38	1087.41
542.73	1089.52
543.09	1083.90
543.44	1081.09
543.80	1081.33
544.15	1085.31
544.51	1092.80
544.86	1096.07
545.22	1094.43
545.57	1089.75
545.93	1071.50
546.28	1067.52
546.64	1075.48
546.99	1076.18
547.35	1073.14
547.70	1076.65
548.05	1082.03
548.41	1078.28
548.76	1085.07
549.12	1080.16
549.47	1082.97
549.83	1080.86
550.18	1069.39
550.53	1070.09
550.89	1062.60
551.24	1067.05
551.60	1067.28
551.95	1076.18
552.30	1074.31
552.66	1084.14
553.01	1084.60
553.37	1085.54
553.72	1087.18
554.07	1085.07
554.43	1081.09
554.78	1074.31
555.13	1076.41
555.49	1071.73
555.84	1080.63
556.19	1082.26
556.55	1082.26
556.90	1084.37
557.26	1093.97
557.61	1082.97
557.96	1070.56
558.32	1066.11
558.67	1057.92
559.02	1045.75
559.37	1053.24
559.73	1069.16
560.08	1078.28
560.43	1090.69
560.79	1091.86
561.14	1083.67
561.49	1076.88
561.85	1080.63
562.20	1074.54
562.55	1081.80
562.90	1077.35
563.26	1082.03
563.61	1071.97
563.96	1077.35
564.32	1078.28
564.67	1081.80
565.02	1076.18
565.37	1072.43
565.73	1058.39
566.08	1052.54
566.43	1049.96
566.78	1055.58
567.14	1062.14
567.49	1062.37
567.84	1057.45
568.19	1067.05
568.54	1062.60
568.90	1071.50
569.25	1078.52
569.60	1089.99
569.95	1085.31
570.31	1095.37
570.66	1091.63
571.01	1091.63
571.36	1080.63
571.71	1081.80
572.06	1077.82
572.42	1070.80
572.77	1063.54
573.12	1064.94
573.47	1065.88
573.82	1068.92
574.18	1067.99
574.53	1069.39
574.88	1065.18
575.23	1064.01
575.58	1053.94
575.93	1053.71
576.28	1051.84
576.64	1061.20
576.99	1059.56
577.34	1061.90
577.69	1070.80
578.04	1091.16
578.39	1090.92
578.74	1090.46
579.09	1113.16
579.44	1108.48
579.80	1089.52
580.15	1090.92
580.50	1098.88
580.85	1072.90
581.20	1069.16
581.55	1068.45
581.90	1067.05
582.25	1064.48
582.60	1071.03
582.95	1067.52
583.30	1071.50
583.65	1070.80
584.00	1070.33
584.35	1075.94
584.71	1082.73
585.06	1075.71
585.41	1073.84
585.76	1077.82
586.11	1064.01
586.46	1061.67
586.81	1064.48
587.16	1062.37
587.51	1061.67
587.86	1077.82
588.21	1085.77
588.56	1094.20
588.91	1098.18
589.26	1098.18
589.61	1090.22
589.96	1090.46
590.31	1091.86
590.66	1084.60
591.01	1082.50
591.36	1085.31
591.71	1075.01
592.06	1062.84
592.41	1070.09
592.76	1066.11
593.10	1057.45
593.45	1061.90
593.80	1067.99
594.15	1063.77
594.50	1060.96
594.85	1071.26
595.20	1069.39
595.55	1059.09
595.90	1061.90
596.25	1066.35
596.60	1068.92
596.95	1072.20
597.30	1091.63
597.64	1138.20
597.99	1138.44
598.34	1139.37
598.69	1135.39
599.04	1135.39
599.39	1095.14
599.74	1099.82
600.09	1093.50
600.44	1095.84
600.78	1087.65
601.13	1079.22
601.48	1080.16
601.83	1079.92
602.18	1081.56
602.53	1083.43
602.88	1092.33
603.22	1090.46
603.57	1095.60
603.92	1096.07
604.27	1095.84
604.62	1087.65
604.97	1070.80
605.31	1068.69
605.66	1067.28
606.01	1067.99
606.36	1076.41
606.71	1095.60
607.05	1093.73
607.40	1086.48
607.75	1095.60
608.10	1094.20
608.44	1087.41
608.79	1085.77
609.14	1084.37
609.49	1078.99
609.84	1076.18
610.18	1082.26
610.53	1085.54
610.88	1095.37
611.23	1095.60
611.57	1099.82
611.92	1093.50
612.27	1087.18
612.62	1089.29
612.96	1077.58
613.31	1061.67
613.66	1061.20
614.00	1058.16
614.35	1053.01
614.70	1059.09
615.05	1074.07
615.39	1075.01
615.74	1084.60
616.09	1085.07
616.43	1086.71
616.78	1084.14
617.13	1081.80
617.47	1078.99
617.82	1080.63
618.17	1071.26
618.51	1065.65
618.86	1071.03
619.21	1064.48
619.55	1061.43
619.90	1061.67
620.25	1064.24
620.59	1066.11
620.94	1074.31
621.29	1087.65
621.63	1104.97
621.98	1113.16
622.32	1102.39
622.67	1097.71
623.02	1096.54
623.36	1085.31
623.71	1079.46
624.05	1090.92
624.40	1087.88
624.75	1083.67
625.09	1093.26
625.44	1096.54
625.78	1097.01
626.13	1104.97
626.48	1102.63
626.82	1098.41
627.17	1085.54
627.51	1078.75
627.86	1077.58
628.20	1079.69
628.55	1069.16
628.89	1082.73
629.24	1095.60
629.58	1094.20
629.93	1086.71
630.28	1091.39
630.62	1080.39
630.97	1064.48
631.31	1065.41
631.66	1074.31
632.00	1076.88
632.35	1073.14
632.69	1078.52
633.04	1073.37
633.38	1067.75
633.73	1066.58
634.07	1075.94
634.42	1078.05
634.76	1084.60
635.11	1086.71
635.45	1082.26
635.79	1087.88
636.14	1088.58
636.48	1081.09
636.83	1081.33
637.17	1077.11
637.52	1070.09
637.86	1070.80
638.21	1074.31
638.55	1071.73
638.89	1081.33
639.24	1089.99
639.58	1082.03
639.93	1092.09
640.27	1086.94
640.61	1082.26
640.96	1063.54
641.30	1062.84
641.65	1066.82
641.99	1077.58
642.33	1076.41
642.68	1084.84
643.02	1086.71
643.37	1068.69
643.71	1059.56
644.05	1063.77
644.40	1076.41
644.74	1079.92
645.08	1089.29
645.43	1091.86
645.77	1098.65
646.11	1090.22
646.46	1091.86
646.80	1082.26
647.14	1080.39
647.49	1077.82
647.83	1077.58
648.17	1077.11
648.52	1082.50
648.86	1087.88
649.20	1086.48
649.55	1078.05
649.89	1084.14
650.23	1086.24
650.57	1077.11
650.92	1072.43
651.26	1078.75
651.60	1066.58
651.95	1053.94
652.29	1057.69
652.63	1058.62
652.97	1053.94
653.32	1059.79
653.66	1068.69
654.00	1074.07
654.34	1071.26
654.69	1077.11
655.03	1075.48
655.37	1077.82
655.71	1070.09
656.05	1071.03
656.40	1067.99
656.74	1074.54
657.08	1073.84
657.42	1077.58
657.76	1071.03
658.11	1075.94
658.45	1067.75
658.79	1069.16
659.13	1071.73
659.47	1080.39
659.82	1079.92
660.16	1069.39
660.50	1065.88
660.84	1059.79
661.18	1060.73
661.52	1053.24
661.87	1057.69
662.21	1064.01
662.55	1067.52
662.89	1063.77
663.23	1071.03
663.57	1077.35
663.91	1073.37
664.25	1072.20
664.60	1077.82
664.94	1076.88
665.28	1081.09
665.62	1085.77
665.96	1084.84
666.30	1078.28
666.64	1077.58
666.98	1075.01
667.32	1063.54
667.66	1063.54
668.01	1066.11
668.35	1068.92
668.69	1058.16
669.03	1057.45
669.37	1066.82
669.71	1069.62
670.05	1073.37
670.39	1077.11
670.73	1082.97
671.07	1073.14
671.41	1067.52
671.75	1068.92
672.09	1077.82
672.43	1083.67
672.77	1093.03
673.11	1102.39
673.45	1098.41
673.79	1098.41
674.13	1092.33
674.47	1077.82
674.81	1071.97
675.15	1067.28
675.49	1061.43
675.83	1055.58
676.17	1059.33
676.51	1058.86
676.85	1055.35
677.19	1064.71
677.53	1080.63
677.87	1082.50
678.21	1082.26
678.55	1086.24
678.89	1091.63
679.23	1079.92
679.57	1082.73
679.90	1087.41
680.24	1094.43
680.58	1081.33
680.92	1089.75
681.26	1086.48
681.60	1081.80
681.94	1071.73
682.28	1071.26
682.62	1064.71
682.96	1067.99
683.29	1078.52
683.63	1073.14
683.97	1080.16
684.31	1086.24
684.65	1089.75
684.99	1082.03
685.33	1080.63
685.67	1081.80
686.00	1079.22
686.34	1072.20
686.68	1071.97
687.02	1087.41
687.36	1081.09
687.70	1084.37
688.03	1094.20
688.37	1100.52
688.71	1092.56
689.05	1100.75
689.39	1095.14
689.72	1090.22
690.06	1084.14
690.40	1078.75
690.74	1067.75
691.08	1066.35
691.41	1065.41
691.75	1063.07
692.09	1068.45
692.43	1071.03
692.76	1076.41
693.10	1074.31
693.44	1081.56
693.78	1082.03
694.11	1083.43
694.45	1073.60
694.79	1078.05
695.13	1072.43
695.46	1074.77
695.80	1068.92
696.14	1082.73
696.48	1081.56
696.81	1080.16
697.15	1076.88
697.49	1078.28
697.82	1072.67
698.16	1069.62
698.50	1084.37
698.83	1094.43
699.17	1095.84
699.51	1096.78
699.84	1101.69
700.18	1084.14
700.52	1086.48
700.85	1077.58
701.19	1073.84
701.53	1078.28
701.86	1086.48
702.20	1075.71
702.54	1083.43
702.87	1077.11
703.21	1076.41
703.55	1071.50
703.88	1075.71
704.22	1088.82
704.55	1091.16
704.89	1085.31
705.23	1089.29
705.56	1090.69
705.90	1083.90
706.23	1082.50
706.57	1079.22
706.91	1068.69
707.24	1058.62
707.58	1053.71
707.91	1060.26
708.25	1072.43
708.58	1074.07
708.92	1081.09
709.26	1080.39
709.59	1080.16
709.93	1075.48
710.26	1084.84
710.60	1085.77
710.93	1084.14
711.27	1085.77
711.60	1087.18
711.94	1078.28
712.27	1080.86
712.61	1078.05
712.94	1072.20
713.28	1070.09
713.61	1078.99
713.95	1072.20
714.28	1075.01
714.62	1075.48
714.95	1075.24
715.29	1076.18
715.62	1077.82
715.96	1096.54
716.29	1104.73
716.63	1101.46
716.96	1097.24
717.29	1100.52
717.63	1090.22
717.96	1087.88
718.30	1086.24
718.63	1089.52
718.97	1087.18
719.30	1088.58
719.63	1091.39
719.97	1101.69
720.30	1092.33
720.64	1093.03
720.97	1085.07
721.30	1080.39
721.64	1064.71
721.97	1074.54
722.31	1058.16
722.64	1062.37
722.97	1058.86
723.31	1067.05
723.64	1061.67
723.97	1078.05
724.31	1075.24
724.64	1075.94
724.98	1071.26
725.31	1065.41
725.64	1068.69
725.98	1065.18
726.31	1063.54
726.64	1068.22
726.97	1082.03
727.31	1077.58
727.64	1090.46
727.97	1092.80
728.31	1090.92
728.64	1085.54
728.97	1095.14
729.31	1082.97
729.64	1082.97
729.97	1081.09
730.30	1078.75
730.64	1076.18
730.97	1087.18
731.30	1079.46
731.63	1083.67
731.97	1082.26
732.30	1078.05
732.63	1068.45
732.96	1080.86
733.30	1070.09
733.63	1075.01
733.96	1067.75
734.29	1079.92
734.63	1075.71
734.96	1082.97
735.29	1079.46
735.62	1083.20
735.95	1066.35
736.29	1067.75
736.62	1071.03
736.95	1075.71
737.28	1077.11
737.61	1083.20
737.94	1088.82
738.28	1076.65
738.61	1067.99
738.94	1061.90
739.27	1063.31
739.60	1055.35
739.93	1065.41
740.27	1068.45
740.60	1074.77
740.93	1068.69
741.26	1063.07
741.59	1067.52
741.92	1067.52
742.25	1075.01
742.58	1075.01
742.91	1090.69
743.25	1100.29
743.58	1100.75
743.91	1104.97
744.24	1115.73
744.57	1114.33
744.90	1108.24
745.23	1111.52
745.56	1103.33
745.89	1098.65
746.22	1086.24
746.55	1077.82
746.88	1081.33
747.21	1083.67
747.54	1080.16
747.87	1092.80
748.20	1094.20
748.53	1083.67
748.87	1080.39
749.20	1087.18
749.53	1091.39
749.86	1085.31
750.19	1095.84
750.52	1094.20
750.85	1089.52
751.18	1077.82
751.51	1084.84
751.84	1071.03
752.16	1073.60
752.49	1079.46
752.82	1083.43
753.15	1084.37
753.48	1093.50
753.81	1084.14
754.14	1075.71
754.47	1059.09
754.80	1055.58
755.13	1054.18
755.46	1059.56
755.79	1061.43
756.12	1080.39
756.45	1084.14
756.78	1094.67
757.11	1109.88
757.43	1104.03
757.76	1094.90
758.09	1097.24
758.42	1091.86
758.75	1073.60
759.08	1081.09
759.41	1082.03
759.74	1077.58
760.07	1067.52
760.39	1069.16
760.72	1076.41
761.05	1085.07
761.38	1085.31
761.71	1096.31
762.04	1102.39
762.36	1098.88
762.69	1087.41
763.02	1086.24
763.35	1086.48
763.68	1081.09
764.01	1082.03
764.33	1094.90
764.66	1091.16
764.99	1091.39
765.32	1089.99
765.65	1086.24
765.97	1074.77
766.30	1080.39
766.63	1077.82
766.96	1084.14
767.28	1076.41
767.61	1073.60
767.94	1071.26
768.27	1067.99
768.59	1062.37
768.92	1071.50
769.25	1079.46
769.58	1080.16
769.90	1085.31
770.23	1089.29
770.56	1091.16
770.89	1093.03
771.21	1091.39
771.54	1084.84
771.87	1084.60
772.19	1090.46
772.52	1087.88
772.85	1092.33
773.17	1085.07
773.50	1086.01
773.83	1073.60
774.15	1072.67
774.48	1071.73
774.81	1077.35
775.13	1079.69
775.46	1077.82
775.79	1074.31
776.11	1063.77
776.44	1060.96
776.77	1059.33
777.09	1063.07
777.42	1064.24
777.74	1067.05
778.07	1069.86
778.40	1065.18
778.72	1064.01
779.05	1067.52
779.37	1072.67
779.70	1083.43
780.03	1095.37
780.35	1105.20
780.68	1102.86
781.00	1108.24
781.33	1100.75
781.65	1100.05
781.98	1092.33
782.31	1093.73
782.63	1084.37
782.96	1086.48
783.28	1078.05
783.61	1074.07
783.93	1072.90
784.26	1073.60
784.58	1073.14
784.91	1067.28
785.23	1070.56
785.56	1075.24
785.88	1074.07
786.21	1073.37
786.53	1082.73
786.86	1078.99
787.18	1073.14
787.51	1085.07
787.83	1080.86
788.16	1073.84
788.48	1086.48
788.81	1090.92
789.13	1086.71
789.46	1090.92
789.78	1087.41
790.10	1081.80
790.43	1082.03
790.75	1071.97
791.08	1055.82
791.40	1062.14
791.73	1066.58
792.05	1065.88
792.37	1061.90
792.70	1068.22
793.02	1067.28
793.35	1067.75
793.67	1064.24
793.99	1077.82
794.32	1089.05
794.64	1094.20
794.96	1089.75
795.29	1087.41
795.61	1082.73
795.93	1076.65
796.26	1072.43
796.58	1069.39
796.91	1067.52
797.23	1066.58
797.55	1060.03
797.87	1059.56
798.20	1061.90
798.52	1063.31
798.84	1060.26
799.17	1074.31
799.49	1078.99
799.81	1082.50
800.14	1086.01
800.46	1091.63
800.78	1084.84
801.10	1075.24
801.43	1064.48
801.75	1065.88
802.07	1063.77
802.40	1059.09
802.72	1071.03
803.04	1081.80
803.36	1088.58
803.69	1094.20
804.01	1104.97
804.33	1100.05
804.65	1093.26
804.97	1081.33
805.30	1081.33
805.62	1081.33
805.94	1075.94
806.26	1074.07
806.58	1083.43
806.91	1078.99
807.23	1073.37
807.55	1079.46
807.87	1085.54
808.19	1079.92
808.52	1083.43
808.84	1096.54
809.16	1094.20
809.48	1089.99
809.80	1086.24
810.12	1084.60
810.44	1075.94
810.77	1070.56
811.09	1063.54
811.41	1068.69
811.73	1067.52
812.05	1056.75
812.37	1050.67
812.69	1065.41
813.01	1062.37
813.33	1068.45
813.66	1074.77
813.98	1083.20
814.30	1080.16
814.62	1082.26
814.94	1082.97
815.26	1087.88
815.58	1087.18
815.90	1083.43
816.22	1080.16
816.54	1072.43
816.86	1069.16
817.18	1060.50
817.50	1065.65
817.82	1072.20
818.14	1067.52
818.46	1069.39
818.78	1072.43
819.10	1062.14
819.42	1064.94
819.74	1064.01
820.06	1051.13
820.38	1062.14
820.70	1074.31
821.02	1075.01
821.34	1077.11
821.66	1082.03
821.98	1075.94
822.30	1056.52
822.62	1052.54
822.94	1051.84
823.26	1057.69
823.58	1063.54
823.90	1077.82
824.22	1078.99
824.54	1080.63
824.86	1074.54
825.18	1065.88
825.50	1060.96
825.81	1057.22
826.13	1064.48
826.45	1075.24
826.77	1076.18
827.09	1077.58
827.41	1076.18
827.73	1070.56
828.05	1066.82
828.36	1079.92
828.68	1081.09
829.00	1092.56
829.32	1090.46
829.64	1085.54
829.96	1073.60
830.28	1072.43
830.59	1063.31
830.91	1060.73
831.23	1063.07
831.55	1061.43
831.87	1065.41
832.19	1075.94
832.50	1084.37
832.82	1088.58
833.14	1091.63
833.46	1095.37
833.78	1081.09
834.09	1071.03
834.41	1077.58
834.73	1076.65
835.05	1064.94
835.36	1072.20
835.68	1083.20
836.00	1074.07
836.32	1075.01
836.63	1087.65
836.95	1078.99
837.27	1076.88
837.59	1086.71
837.90	1097.01
838.22	1100.05
838.54	1103.56
838.85	1109.41
839.17	1103.80
839.49	1091.39
839.80	1074.31
840.12	1073.37
840.44	1067.75
840.76	1063.31
841.07	1059.79
841.39	1078.05
841.71	1075.01
842.02	1067.99
842.34	1070.56
842.65	1078.99
842.97	1067.99
843.29	1067.05
843.60	1065.18
843.92	1060.26
844.24	1057.92
844.55	1058.39
844.87	1064.94
845.18	1076.18
845.50	1070.33
845.82	1083.67
846.13	1086.48
846.45	1086.01
846.76	1081.09
847.08	1084.60
847.40	1073.14
847.71	1069.62
848.03	1066.82
848.34	1060.96
848.66	1061.43
848.97	1066.35
849.29	1066.11
849.60	1070.56
849.92	1084.60
850.24	1089.29
850.55	1085.77
850.87	1084.60
851.18	1085.31
851.50	1084.37
851.81	1089.29
852.13	1081.56
852.44	1080.39
852.76	1079.69
853.07	1073.37
853.39	1062.14
853.70	1078.99
854.01	1080.63
854.33	1079.46
854.64	1080.39
854.96	1089.29
855.27	1078.75
855.59	1086.71
855.90	1081.80
856.22	1077.35
856.53	1071.26
856.84	1070.56
857.16	1059.56
857.47	1061.90
857.79	1071.03
858.10	1077.35
858.41	1074.54
858.73	1076.65
859.04	1074.77
859.36	1068.45
859.67	1055.35
859.98	1054.41
860.30	1055.82
860.61	1063.07
860.92	1051.60
861.24	1059.33
861.55	1061.43
861.87	1063.54
862.18	1054.18
862.49	1067.52
862.81	1067.99
863.12	1071.26
863.43	1067.75
863.74	1075.24
864.06	1073.37
864.37	1071.50
864.68	1073.60
865.00	1082.03
865.31	1076.65
865.62	1076.18
865.94	1080.16
866.25	1077.35
866.56	1077.11
866.87	1077.58
867.19	1086.94
867.50	1090.69
867.81	1089.52
868.12	1082.03
868.44	1085.77
868.75	1080.39
869.06	1085.77
869.37	1091.16
869.68	1095.84
870.00	1091.86
870.31	1093.50
870.62	1086.71
870.93	1086.24
871.24	1087.18
871.56	1094.90
871.87	1093.03
872.18	1086.94
872.49	1088.12
872.80	1085.77
873.12	1080.63
873.43	1079.92
873.74	1089.75
874.05	1081.33
874.36	1079.22
874.67	1079.22
874.98	1075.48
875.29	1068.22
875.61	1070.09
875.92	1067.28
876.23	1063.77
876.54	1078.05
876.85	1078.28
877.16	1086.01
877.47	1091.39
877.78	1091.63
878.09	1080.39
878.40	1077.82
878.72	1071.03
879.03	1069.62
879.34	1082.03
879.65	1081.56
879.96	1088.82
880.27	1093.73
880.58	1089.99
880.89	1090.92
881.20	1083.43
881.51	1082.26
881.82	1083.43
882.13	1083.43
882.44	1078.75
882.75	1086.01
883.06	1084.14
883.37	1076.41
883.68	1073.60
883.99	1067.28
884.30	1072.43
884.61	1075.94
884.92	1081.56
885.23	1084.37
885.54	1082.03
885.85	1078.52
886.16	1079.69
886.47	1069.86
886.78	1063.07
887.08	1065.88
887.39	1058.39
887.70	1055.58
888.01	1062.14
888.32	1071.03
888.63	1080.86
888.94	1093.73
889.25	1095.14
889.56	1097.01
889.87	1092.33
890.17	1077.35
890.48	1074.54
890.79	1074.07
891.10	1074.77
891.41	1069.39
891.72	1077.35
892.03	1077.11
892.34	1072.90
892.64	1066.35
892.95	1079.22
893.26	1081.56
893.57	1078.05
893.88	1075.24
894.18	1076.41
894.49	1074.54
894.80	1075.01
895.11	1066.58
895.42	1064.94
895.72	1070.80
896.03	1065.41
896.34	1066.11
896.65	1074.31
896.96	1076.88
897.26	1076.65
897.57	1083.67
897.88	1075.94
898.19	1071.26
898.49	1070.33
898.80	1068.22
899.11	1066.82
899.41	1072.67
899.72	1074.54
900.03	1078.05
900.34	1070.56
900.64	1063.54
900.95	1056.75
901.26	1053.71
901.56	1061.20
901.87	1056.28
902.18	1057.22
902.48	1062.84
902.79	1073.14
903.10	1065.41
903.40	1080.63
903.71	1087.65
904.02	1081.33
904.32	1084.37
904.63	1088.58
904.94	1090.22
905.24	1086.94
905.55	1097.48
905.85	1092.09
906.16	1086.48
906.47	1083.67
906.77	1077.11
907.08	1063.07
907.38	1062.14
907.69	1063.31
908.00	1057.69
908.30	1062.14
908.61	1069.39
908.91	1069.86
909.22	1068.69
909.52	1071.03
909.83	1072.67
910.14	1072.67
910.44	1072.67
910.75	1072.20
911.05	1072.67
911.36	1064.01
911.66	1069.16
911.97	1069.39
912.27	1067.52
912.58	1064.01
912.88	1072.43
913.19	1073.60
913.49	1065.18
913.80	1071.50
914.10	1073.14
914.41	1072.67
914.71	1072.43
915.01	1083.20
915.32	1078.75
915.62	1080.86
915.93	1088.35
916.23	1075.24
916.54	1067.52
916.84	1078.28
917.15	1070.56
917.45	1072.90
917.75	1078.52
918.06	1085.77
918.36	1086.48
918.67	1095.84
918.97	1087.88
919.27	1093.97
919.58	1095.14
919.88	1090.22
920.18	1089.75
920.49	1085.54
920.79	1080.63
921.10	1075.24
921.40	1071.97
921.70	1065.18
922.01	1068.45
922.31	1071.73
922.61	1070.56
922.92	1067.99
923.22	1073.60
923.52	1082.73
923.82	1079.46
924.13	1085.07
924.43	1089.05
924.73	1084.60
925.04	1075.71
925.34	1075.71
925.64	1061.90
925.94	1059.33
926.25	1059.56
926.55	1060.26
926.85	1068.22
927.15	1079.92
927.46	1074.31
927.76	1076.41
928.06	1073.14
928.36	1068.69
928.67	1061.90
928.97	1062.84
929.27	1065.18
929.57	1061.90
929.87	1053.71
930.18	1068.45
930.48	1075.94
930.78	1082.73
931.08	1091.86
931.38	1093.50
931.69	1082.03
931.99	1074.54
932.29	1071.50
932.59	1070.56
932.89	1066.58
933.19	1067.28
933.49	1077.58
933.80	1077.35
934.10	1083.43
934.40	1091.16
934.70	1084.60
935.00	1081.09
935.30	1075.01
935.60	1063.07
935.90	1061.67
936.20	1072.67
936.50	1079.46
936.81	1075.01
937.11	1076.65
937.41	1076.88
937.71	1078.99
938.01	1073.60
938.31	1077.11
938.61	1080.86
938.91	1080.16
939.21	1075.94
939.51	1075.48
939.81	1077.11
940.11	1073.60
940.41	1067.05
940.71	1066.11
941.01	1068.69
941.31	1064.48
941.61	1076.88
941.91	1087.65
942.21	1085.07
942.51	1084.37
942.81	1096.31
943.11	1087.88
943.41	1089.75
943.71	1093.03
944.01	1088.58
944.31	1073.37
944.61	1072.43
944.90	1069.39
945.20	1075.71
945.50	1072.20
945.80	1084.84
946.10	1088.82
946.40	1086.24
946.70	1083.67
947.00	1098.41
947.30	1099.35
947.60	1090.46
947.89	1089.75
948.19	1078.28
948.49	1066.11
948.79	1061.43
949.09	1067.99
949.39	1070.56
949.69	1071.26
949.98	1068.69
950.28	1070.33
950.58	1069.39
950.88	1068.92
951.18	1077.11
951.48	1081.80
951.77	1079.69
952.07	1085.07
952.37	1086.71
952.67	1092.33
952.97	1099.82
953.26	1100.99
953.56	1096.07
953.86	1098.41
954.16	1090.69
954.45	1079.92
954.75	1089.75
955.05	1082.97
955.35	1082.97
955.64	1093.03
955.94	1093.03
956.24	1080.16
956.54	1086.94
956.83	1082.73
957.13	1071.26
957.43	1074.07
957.72	1086.24
958.02	1089.29
958.32	1094.67
958.61	1094.90
958.91	1094.90
959.21	1070.56
959.50	1069.62
959.80	1069.86
960.10	1071.73
960.39	1077.82
960.69	1090.46
960.99	1082.50
961.28	1078.28
961.58	1073.60
961.87	1061.20
962.17	1066.82
962.47	1073.14
962.76	1074.31
963.06	1071.97
963.36	1071.26
963.65	1071.03
963.95	1069.86
964.24	1067.75
964.54	1076.65
964.83	1078.52
965.13	1081.33
965.42	1080.86
965.72	1087.18
966.02	1081.33
966.31	1086.01
966.61	1088.82
966.90	1091.16
967.20	1088.35
967.49	1089.75
967.79	1093.50
968.08	1088.82
968.38	1079.22
968.67	1063.77
968.97	1064.48
969.26	1063.31
969.56	1064.94
969.85	1065.18
970.15	1074.07
970.44	1076.88
970.74	1076.65
971.03	1070.09
971.32	1094.90
971.62	1102.63
971.91	1097.71
972.21	1088.58
972.50	1089.75
972.80	1061.67
973.09	1058.16
973.38	1060.50
973.68	1067.99
973.97	1065.41
974.27	1076.18
974.56	1083.20
974.85	1085.07
975.15	1095.37
975.44	1086.24
975.73	1084.37
976.03	1075.71
976.32	1069.16
976.61	1050.20
976.91	1067.52
977.20	1072.90
977.49	1068.22
977.79	1073.14
978.08	1077.11
978.37	1068.45
978.67	1068.69
978.96	1069.86
979.25	1060.73
979.55	1056.28
979.84	1060.26
980.13	1060.96
980.42	1076.88
980.72	1091.63
981.01	1103.56
981.30	1109.88
981.59	1102.86
981.89	1084.60
982.18	1079.46
982.47	1082.73
982.76	1072.67
983.06	1072.67
983.35	1083.20
983.64	1079.46
983.93	1079.46
984.22	1073.60
984.52	1078.28
984.81	1081.33
985.10	1081.80
985.39	1071.73
985.68	1085.07
985.97	1080.86
986.27	1077.82
986.56	1076.41
986.85	1087.41
987.14	1093.50
987.43	1089.52
987.72	1085.07
988.01	1084.37
988.31	1085.07
988.60	1079.22
988.89	1090.46
989.18	1096.78
989.47	1103.09
989.76	1099.12
990.05	1095.14
990.34	1094.20
990.63	1089.75
990.92	1084.60
991.21	1082.03
991.51	1081.80
991.80	1076.88
992.09	1077.11
992.38	1078.52
992.67	1072.43
992.96	1070.80
993.25	1065.41
993.54	1066.82
993.83	1066.58
994.12	1071.03
994.41	1076.18
994.70	1075.24
994.99	1074.31
995.28	1072.43
995.57	1071.26
995.86	1067.05
996.15	1070.09
996.44	1068.69
996.73	1077.11
997.02	1066.82
997.31	1059.09
997.59	1063.77
997.88	1063.31
998.17	1055.35
998.46	1070.80
998.75	1074.77
999.04	1068.22
999.33	1065.88
999.62	1067.05
999.91	1064.01
1000.20	1068.45
1000.49	1071.03
1000.77	1072.67
1001.06	1077.35
1001.35	1077.58
1001.64	1071.50
1001.93	1072.20
1002.22	1073.84
1002.51	1078.28
1002.79	1077.11
1003.08	1074.31
1003.37	1081.80
1003.66	1079.22
1003.95	1075.71
1004.23	1077.35
1004.52	1079.69
1004.81	1072.90
1005.10	1070.80
1005.39	1067.28
1005.67	1073.84
1005.96	1080.86
1006.25	1076.65
1006.54	1082.26
1006.83	1080.86
1007.11	1071.03
1007.40	1075.01
1007.69	1075.94
1007.97	1062.60
1008.26	1060.73
1008.55	1056.75
1008.84	1043.88
1009.12	1049.03
1009.41	1060.03
1009.70	1069.62
1009.98	1081.33
1010.27	1090.92
1010.56	1100.99
1010.85	1100.99
1011.13	1100.29
1011.42	1097.01
1011.71	1106.14
1011.99	1100.29
1012.28	1100.75
1012.56	1092.56
1012.85	1094.67
1013.14	1081.56
1013.42	1078.99
1013.71	1073.84
1014.00	1082.26
1014.28	1074.77
1014.57	1071.50
1014.85	1072.43
1015.14	1073.60
1015.43	1072.43
1015.71	1083.90
1016.00	1089.05
1016.28	1086.01
1016.57	1078.28
1016.85	1076.88
1017.14	1070.09
1017.43	1084.37
1017.71	1087.65
1018.00	1096.54
1018.28	1087.41
1018.57	1086.48
1018.85	1076.18
1019.14	1075.71
1019.42	1074.77
1019.71	1082.26
1019.99	1084.14
1020.28	1080.63
1020.56	1077.82
1020.85	1070.33
1021.13	1067.99
1021.42	1063.77
1021.70	1061.20
1021.99	1063.31
1022.27	1078.75
1022.55	1088.35
1022.84	1098.88
>>>>>End Processed Spectral Data<<<<<
