SpectraSuite Data File
++++++++++++++++++++++++++++++++++++
Date: Mon Aug 26 10:24:34 PDT 2019
User: corrico
Dark Spectrum Present: No
Reference Spectrum Present: No
Number of Sampled Component Spectra: 1
Spectrometers: USB2+H06089
Integration Time (usec): 10000 (USB2+H06089)
Spectra Averaged: 2 (USB2+H06089)
Boxcar Smoothing: 2 (USB2+H06089)
Correct for Electrical Dark: No (USB2+H06089)
Strobe/Lamp Enabled: No (USB2+H06089)
Correct for Detector Non-linearity: No (USB2+H06089)
Correct for Stray Light: No (USB2+H06089)
Number of Pixels in Processed Spectrum: 2048
>>>>>Begin Processed Spectral Data<<<<<
339.70	1026.32
340.07	1026.32
340.45	990.28
340.82	967.11
341.19	945.34
341.57	911.64
341.94	910.23
342.31	899.00
342.69	892.21
343.06	894.55
343.43	904.15
343.81	912.34
344.18	918.19
344.55	924.98
344.93	921.94
345.30	924.28
345.67	919.83
346.04	915.15
346.42	930.13
346.79	939.73
347.16	950.96
347.54	953.30
347.91	972.96
348.28	973.66
348.65	978.11
349.03	985.13
349.40	996.37
349.77	998.24
350.14	1005.96
350.52	1016.73
350.89	1026.56
351.26	1038.03
351.63	1049.96
352.01	1058.62
352.38	1063.31
352.75	1058.39
353.12	1067.75
353.50	1066.35
353.87	1072.43
354.24	1067.52
354.61	1080.39
354.98	1073.14
355.36	1087.65
355.73	1087.18
356.10	1097.24
356.47	1096.31
356.84	1104.97
357.22	1095.84
357.59	1094.20
357.96	1101.69
358.33	1104.50
358.70	1105.44
359.08	1106.61
359.45	1100.52
359.82	1098.65
360.19	1089.05
360.56	1073.84
360.94	1074.54
361.31	1070.56
361.68	1053.71
362.05	1059.56
362.42	1074.77
362.79	1070.80
363.16	1076.18
363.54	1076.65
363.91	1065.88
364.28	1055.82
364.65	1048.56
365.02	1045.75
365.39	1057.22
365.76	1063.31
366.14	1058.62
366.51	1063.07
366.88	1060.26
367.25	1055.35
367.62	1055.35
367.99	1062.14
368.36	1069.39
368.73	1074.77
369.10	1072.67
369.48	1080.16
369.85	1084.60
370.22	1069.16
370.59	1074.31
370.96	1075.24
371.33	1070.09
371.70	1073.37
372.07	1080.86
372.44	1087.65
372.81	1093.26
373.18	1096.54
373.55	1092.09
373.93	1098.65
374.30	1090.22
374.67	1093.50
375.04	1088.35
375.41	1079.46
375.78	1074.31
376.15	1072.20
376.52	1065.18
376.89	1061.20
377.26	1062.14
377.63	1067.75
378.00	1075.94
378.37	1068.69
378.74	1066.58
379.11	1070.56
379.48	1066.58
379.85	1060.50
380.22	1072.20
380.59	1081.80
380.96	1092.09
381.33	1099.82
381.70	1090.69
382.07	1087.41
382.44	1085.31
382.81	1065.88
383.18	1049.73
383.55	1054.18
383.92	1052.54
384.29	1049.26
384.66	1049.50
385.03	1053.71
385.40	1056.28
385.77	1063.31
386.14	1068.92
386.51	1084.37
386.88	1075.94
387.25	1072.67
387.62	1065.65
387.99	1068.69
388.36	1060.50
388.73	1072.43
389.10	1079.92
389.46	1082.73
389.83	1077.82
390.20	1082.26
390.57	1075.94
390.94	1077.35
391.31	1082.50
391.68	1094.90
392.05	1089.52
392.42	1093.50
392.79	1089.75
393.16	1080.86
393.53	1064.94
393.89	1074.31
394.26	1082.26
394.63	1094.67
395.00	1103.33
395.37	1113.86
395.74	1108.01
396.11	1104.97
396.48	1094.43
396.84	1090.46
397.21	1085.07
397.58	1097.95
397.95	1098.18
398.32	1100.99
398.69	1107.31
399.06	1115.03
399.42	1103.80
399.79	1107.31
400.16	1109.65
400.53	1106.84
400.90	1104.50
401.27	1108.24
401.64	1109.18
402.00	1103.09
402.37	1107.78
402.74	1095.84
403.11	1093.03
403.48	1097.24
403.84	1096.07
404.21	1095.37
404.58	1110.58
404.95	1117.84
405.32	1116.44
405.68	1126.73
406.05	1120.88
406.42	1119.01
406.79	1110.12
407.16	1111.05
407.52	1117.84
407.89	1129.54
408.26	1137.03
408.63	1148.50
408.99	1155.52
409.36	1152.48
409.73	1150.84
410.10	1163.25
410.47	1171.91
410.83	1179.86
411.20	1192.03
411.57	1204.91
411.94	1210.29
412.30	1225.97
412.67	1242.59
413.04	1244.93
413.40	1248.44
413.77	1251.72
414.14	1269.27
414.51	1281.68
414.87	1304.85
415.24	1339.96
415.61	1368.98
415.97	1374.60
416.34	1393.09
416.71	1406.66
417.08	1424.92
417.44	1457.92
417.81	1493.26
418.18	1531.18
418.54	1585.95
418.91	1622.69
419.28	1644.93
419.64	1686.12
420.01	1724.51
420.38	1747.44
420.74	1789.81
421.11	1846.21
421.48	1896.30
421.84	1936.56
422.21	1997.88
422.58	2058.74
422.94	2112.80
423.31	2177.40
423.68	2254.64
424.04	2318.53
424.41	2394.37
424.77	2456.16
425.14	2533.63
425.51	2608.29
425.87	2694.66
426.24	2774.24
426.61	2899.69
426.97	3016.72
427.34	3136.55
427.70	3279.56
428.07	3416.25
428.44	3542.63
428.80	3660.83
429.17	3790.73
429.53	3912.91
429.90	4061.77
430.27	4189.79
430.63	4328.35
431.00	4475.57
431.36	4650.88
431.73	4809.80
432.09	4961.47
432.46	5133.03
432.83	5309.27
433.19	5457.66
433.56	5609.09
433.92	5786.97
434.29	5937.94
434.65	6107.63
435.02	6246.89
435.38	6422.20
435.75	6568.48
436.11	6753.38
436.48	6894.05
436.84	7065.84
437.21	7190.59
437.57	7317.68
437.94	7408.97
438.30	7497.91
438.67	7519.91
439.03	7536.99
439.40	7573.04
439.76	7559.93
440.13	7525.06
440.49	7553.61
440.86	7522.01
441.22	7463.03
441.59	7415.99
441.95	7378.30
442.32	7254.02
442.68	7181.47
443.05	7089.72
443.41	6963.33
443.78	6816.34
444.14	6718.74
444.51	6544.84
444.87	6407.22
445.24	6280.59
445.60	6163.80
445.96	5997.86
446.33	5908.45
446.69	5751.63
447.06	5609.56
447.42	5430.98
447.79	5299.44
448.15	5163.92
448.51	5062.58
448.88	4982.06
449.24	4908.81
449.61	4833.91
449.97	4733.97
450.33	4620.69
450.70	4484.23
451.06	4376.57
451.43	4250.18
451.79	4142.05
452.15	4066.21
452.52	3988.27
452.88	3916.65
453.24	3870.08
453.61	3799.63
453.97	3720.75
454.34	3645.38
454.70	3552.47
455.06	3467.50
455.43	3381.84
455.79	3289.15
456.15	3216.13
456.52	3153.40
456.88	3081.78
457.24	3030.99
457.61	2983.48
457.97	2911.39
458.33	2847.03
458.70	2766.75
459.06	2690.91
459.42	2640.36
459.79	2594.48
460.15	2543.93
460.51	2501.33
460.88	2463.88
461.24	2403.50
461.60	2361.83
461.96	2320.88
462.33	2294.66
462.69	2243.17
463.05	2204.08
463.42	2168.27
463.78	2128.95
464.14	2088.23
464.50	2073.71
464.87	2048.90
465.23	2013.56
465.59	1996.24
465.95	1970.26
466.32	1933.28
466.68	1897.00
467.04	1872.43
467.40	1844.81
467.77	1814.85
468.13	1798.47
468.49	1783.49
468.85	1751.89
469.22	1725.44
469.58	1703.21
469.94	1684.95
470.30	1662.95
470.66	1646.10
471.03	1637.20
471.39	1620.35
471.75	1602.80
472.11	1594.37
472.47	1602.56
472.84	1591.33
473.20	1594.61
473.56	1583.84
473.92	1576.12
474.28	1550.60
474.65	1530.24
475.01	1506.13
475.37	1495.37
475.73	1481.56
476.09	1475.01
476.45	1473.37
476.81	1469.86
477.18	1466.11
477.54	1465.64
477.90	1452.77
478.26	1433.11
478.62	1431.47
478.98	1414.85
479.34	1388.87
479.71	1388.87
480.07	1383.72
480.43	1376.70
480.79	1362.66
481.15	1362.43
481.51	1353.77
481.87	1349.55
482.23	1336.21
482.59	1335.51
482.96	1332.94
483.32	1327.79
483.68	1313.74
484.04	1311.40
484.40	1310.47
484.76	1304.15
485.12	1289.87
485.48	1291.27
485.84	1284.95
486.20	1272.78
486.56	1253.36
486.92	1254.06
487.28	1248.68
487.64	1238.38
488.00	1234.63
488.37	1251.02
488.73	1253.36
489.09	1249.14
489.45	1250.31
489.81	1248.68
490.17	1238.38
490.53	1220.36
490.89	1222.70
491.25	1216.38
491.61	1212.16
491.97	1209.35
492.33	1219.19
492.69	1211.23
493.05	1209.35
493.41	1208.65
493.77	1200.69
494.13	1196.48
494.49	1192.27
494.85	1192.27
495.21	1181.97
495.57	1171.44
495.93	1158.10
496.29	1164.65
496.64	1162.78
497.00	1160.91
497.36	1172.84
497.72	1177.99
498.08	1169.80
498.44	1161.14
498.80	1168.40
499.16	1170.74
499.52	1160.91
499.88	1151.31
500.24	1149.44
500.60	1145.93
500.96	1134.69
501.32	1138.20
501.68	1137.97
502.03	1141.71
502.39	1139.14
502.75	1138.44
503.11	1129.78
503.47	1127.44
503.83	1117.37
504.19	1104.26
504.55	1100.29
504.91	1117.37
505.26	1121.35
505.62	1113.39
505.98	1110.35
506.34	1106.37
506.70	1100.99
507.06	1096.78
507.42	1100.52
507.78	1111.29
508.13	1125.33
508.49	1121.35
508.85	1123.46
509.21	1126.50
509.57	1114.80
509.93	1100.05
510.28	1098.88
510.64	1095.84
511.00	1098.65
511.36	1111.05
511.72	1109.41
512.07	1104.03
512.43	1107.78
512.79	1099.58
513.15	1096.07
513.51	1100.52
513.86	1104.03
514.22	1097.95
514.58	1094.43
514.94	1094.43
515.30	1097.71
515.65	1095.14
516.01	1094.90
516.37	1101.92
516.73	1107.07
517.08	1094.90
517.44	1104.73
517.80	1105.44
518.16	1106.37
518.51	1107.07
518.87	1101.92
519.23	1096.07
519.59	1086.94
519.94	1079.92
520.30	1078.05
520.66	1088.58
521.01	1087.41
521.37	1095.84
521.73	1108.01
522.09	1092.09
522.44	1094.20
522.80	1092.56
523.16	1093.50
523.51	1091.16
523.87	1100.29
524.23	1094.20
524.58	1092.33
524.94	1096.78
525.30	1082.97
525.65	1076.41
526.01	1069.86
526.37	1071.97
526.72	1070.09
527.08	1075.71
527.44	1080.39
527.79	1088.58
528.15	1086.24
528.51	1078.05
528.86	1078.52
529.22	1073.14
529.58	1075.01
529.93	1070.56
530.29	1068.92
530.65	1071.73
531.00	1078.05
531.36	1082.97
531.71	1089.99
532.07	1089.05
532.43	1093.26
532.78	1098.41
533.14	1090.46
533.49	1086.94
533.85	1094.67
534.21	1089.99
534.56	1077.82
534.92	1086.01
535.27	1086.24
535.63	1086.94
535.98	1080.63
536.34	1085.77
536.69	1078.28
537.05	1079.22
537.41	1069.62
537.76	1076.41
538.12	1078.05
538.47	1078.75
538.83	1095.60
539.18	1115.27
539.54	1113.39
539.89	1107.07
540.25	1110.58
540.60	1102.63
540.96	1097.95
541.31	1096.07
541.67	1100.99
542.02	1100.29
542.38	1089.99
542.73	1078.28
543.09	1081.56
543.44	1079.46
543.80	1068.69
544.15	1074.77
544.51	1081.33
544.86	1088.35
545.22	1095.84
545.57	1111.05
545.93	1104.03
546.28	1104.26
546.64	1099.82
546.99	1096.07
547.35	1088.35
547.70	1080.39
548.05	1076.18
548.41	1073.37
548.76	1068.22
549.12	1076.88
549.47	1087.88
549.83	1096.07
550.18	1097.01
550.53	1099.82
550.89	1090.22
551.24	1088.12
551.60	1086.94
551.95	1078.75
552.30	1081.33
552.66	1086.48
553.01	1086.71
553.37	1080.16
553.72	1085.31
554.07	1086.48
554.43	1078.75
554.78	1078.99
555.13	1074.77
555.49	1076.41
555.84	1073.60
556.19	1073.14
556.55	1070.56
556.90	1075.01
557.26	1078.28
557.61	1071.26
557.96	1075.71
558.32	1074.77
558.67	1077.11
559.02	1074.07
559.37	1090.46
559.73	1082.03
560.08	1076.18
560.43	1069.86
560.79	1066.82
561.14	1064.48
561.49	1074.07
561.85	1084.14
562.20	1082.73
562.55	1083.67
562.90	1073.14
563.26	1070.80
563.61	1073.37
563.96	1077.82
564.32	1076.88
564.67	1083.20
565.02	1079.69
565.37	1078.75
565.73	1082.03
566.08	1081.80
566.43	1080.16
566.78	1089.75
567.14	1077.58
567.49	1071.03
567.84	1078.52
568.19	1076.88
568.54	1079.22
568.90	1086.01
569.25	1096.07
569.60	1091.39
569.95	1093.97
570.31	1086.24
570.66	1085.31
571.01	1073.60
571.36	1073.60
571.71	1065.41
572.06	1058.86
572.42	1070.56
572.77	1066.58
573.12	1070.33
573.47	1083.20
573.82	1098.88
574.18	1095.37
574.53	1108.71
574.88	1106.14
575.23	1095.60
575.58	1090.46
575.93	1094.90
576.28	1086.24
576.64	1091.86
576.99	1088.82
577.34	1083.67
577.69	1064.94
578.04	1072.90
578.39	1066.58
578.74	1074.07
579.09	1081.56
579.44	1079.69
579.80	1075.94
580.15	1069.62
580.50	1070.33
580.85	1066.35
581.20	1069.86
581.55	1073.14
581.90	1081.56
582.25	1079.69
582.60	1087.88
582.95	1098.88
583.30	1092.56
583.65	1092.09
584.00	1097.01
584.35	1077.58
584.71	1078.99
585.06	1078.99
585.41	1072.90
585.76	1064.48
586.11	1074.77
586.46	1067.52
586.81	1078.75
587.16	1077.11
587.51	1081.09
587.86	1079.69
588.21	1086.01
588.56	1076.65
588.91	1078.05
589.26	1080.39
589.61	1085.54
589.96	1078.75
590.31	1080.63
590.66	1093.26
591.01	1090.46
591.36	1080.86
591.71	1082.03
592.06	1082.26
592.41	1069.39
592.76	1065.65
593.10	1071.26
593.45	1078.99
593.80	1086.71
594.15	1101.92
594.50	1108.48
594.85	1108.24
595.20	1101.46
595.55	1084.37
595.90	1072.90
596.25	1069.86
596.60	1077.58
596.95	1087.88
597.30	1095.84
597.64	1145.69
597.99	1149.91
598.34	1140.54
598.69	1132.59
599.04	1130.01
599.39	1090.92
599.74	1074.07
600.09	1082.26
600.44	1074.31
600.78	1078.52
601.13	1069.16
601.48	1079.69
601.83	1072.67
602.18	1075.01
602.53	1077.58
602.88	1070.33
603.22	1071.73
603.57	1073.37
603.92	1073.14
604.27	1070.80
604.62	1083.90
604.97	1086.71
605.31	1087.41
605.66	1085.54
606.01	1086.94
606.36	1085.31
606.71	1092.09
607.05	1090.69
607.40	1090.46
607.75	1090.22
608.10	1080.86
608.44	1073.37
608.79	1086.71
609.14	1091.16
609.49	1101.92
609.84	1105.90
610.18	1101.92
610.53	1088.58
610.88	1092.33
611.23	1078.99
611.57	1082.26
611.92	1090.69
612.27	1094.43
612.62	1100.29
612.96	1105.67
613.31	1108.48
613.66	1102.16
614.00	1095.84
614.35	1094.20
614.70	1098.65
615.05	1087.18
615.39	1091.86
615.74	1105.67
616.09	1101.92
616.43	1088.82
616.78	1094.20
617.13	1093.26
617.47	1073.60
617.82	1073.37
618.17	1087.41
618.51	1089.75
618.86	1092.33
619.21	1097.95
619.55	1105.20
619.90	1105.90
620.25	1107.07
620.59	1096.78
620.94	1107.78
621.29	1106.84
621.63	1095.84
621.98	1088.82
622.32	1088.58
622.67	1075.71
623.02	1070.33
623.36	1067.05
623.71	1070.33
624.05	1071.97
624.40	1073.14
624.75	1074.31
625.09	1078.28
625.44	1080.39
625.78	1080.39
626.13	1080.63
626.48	1075.24
626.82	1079.46
627.17	1068.22
627.51	1071.73
627.86	1066.82
628.20	1068.22
628.55	1055.82
628.89	1068.22
629.24	1059.56
629.58	1063.31
629.93	1056.05
630.28	1068.92
630.62	1069.62
630.97	1074.31
631.31	1077.58
631.66	1082.97
632.00	1083.20
632.35	1079.92
632.69	1087.65
633.04	1082.97
633.38	1086.94
633.73	1083.43
634.07	1090.46
634.42	1090.22
634.76	1090.69
635.11	1098.88
635.45	1089.29
635.79	1074.31
636.14	1069.39
636.48	1080.63
636.83	1071.97
637.17	1078.28
637.52	1083.90
637.86	1078.05
638.21	1068.22
638.55	1071.03
638.89	1076.41
639.24	1086.71
639.58	1092.80
639.93	1098.65
640.27	1101.92
640.61	1095.60
640.96	1075.71
641.30	1078.28
641.65	1082.03
641.99	1065.41
642.33	1076.88
642.68	1084.60
643.02	1083.43
643.37	1079.92
643.71	1086.48
644.05	1071.50
644.40	1069.86
644.74	1061.90
645.08	1064.48
645.43	1060.50
645.77	1063.77
646.11	1073.14
646.46	1075.94
646.80	1070.09
647.14	1074.77
647.49	1078.28
647.83	1074.31
648.17	1087.88
648.52	1082.26
648.86	1081.33
649.20	1072.67
649.55	1068.69
649.89	1066.35
650.23	1075.01
650.57	1075.24
650.92	1076.65
651.26	1070.33
651.60	1060.73
651.95	1059.56
652.29	1054.88
652.63	1061.43
652.97	1066.82
653.32	1071.73
653.66	1072.43
654.00	1079.22
654.34	1081.56
654.69	1087.18
655.03	1081.80
655.37	1077.35
655.71	1071.03
656.05	1067.28
656.40	1057.69
656.74	1064.24
657.08	1066.58
657.42	1069.16
657.76	1067.52
658.11	1068.69
658.45	1055.11
658.79	1060.03
659.13	1069.86
659.47	1078.28
659.82	1083.90
660.16	1088.82
660.50	1084.60
660.84	1074.07
661.18	1060.50
661.52	1057.22
661.87	1072.67
662.21	1073.84
662.55	1075.24
662.89	1089.29
663.23	1101.22
663.57	1094.43
663.91	1093.26
664.25	1101.22
664.60	1100.29
664.94	1096.54
665.28	1095.14
665.62	1096.07
665.96	1094.20
666.30	1094.67
666.64	1093.97
666.98	1092.56
667.32	1091.39
667.66	1078.05
668.01	1069.62
668.35	1071.73
668.69	1067.05
669.03	1062.14
669.37	1065.65
669.71	1070.33
670.05	1069.16
670.39	1081.09
670.73	1084.84
671.07	1104.03
671.41	1108.48
671.75	1108.71
672.09	1096.54
672.43	1111.52
672.77	1102.16
673.11	1099.12
673.45	1095.37
673.79	1094.90
674.13	1076.18
674.47	1083.90
674.81	1072.67
675.15	1067.52
675.49	1067.75
675.83	1074.77
676.17	1061.20
676.51	1067.75
676.85	1068.22
677.19	1070.56
677.53	1069.62
677.87	1069.16
678.21	1072.20
678.55	1075.94
678.89	1077.82
679.23	1077.11
679.57	1081.80
679.90	1078.28
680.24	1086.94
680.58	1094.43
680.92	1088.82
681.26	1093.03
681.60	1103.80
681.94	1099.35
682.28	1092.33
682.62	1109.18
682.96	1103.33
683.29	1094.67
683.63	1094.20
683.97	1092.56
684.31	1088.35
684.65	1096.31
684.99	1094.90
685.33	1093.26
685.67	1094.20
686.00	1080.86
686.34	1080.86
686.68	1076.18
687.02	1073.84
687.36	1070.56
687.70	1073.37
688.03	1066.11
688.37	1078.99
688.71	1083.20
689.05	1082.97
689.39	1082.97
689.72	1088.82
690.06	1076.65
690.40	1068.45
690.74	1074.77
691.08	1077.11
691.41	1062.60
691.75	1071.26
692.09	1064.71
692.43	1057.69
692.76	1058.86
693.10	1067.05
693.44	1060.03
693.78	1077.11
694.11	1086.94
694.45	1083.43
694.79	1089.05
695.13	1093.50
695.46	1086.48
695.80	1076.18
696.14	1082.26
696.48	1078.52
696.81	1073.84
697.15	1076.88
697.49	1085.54
697.82	1066.35
698.16	1057.69
698.50	1058.86
698.83	1062.14
699.17	1056.28
699.51	1064.94
699.84	1067.28
700.18	1062.60
700.52	1055.58
700.85	1055.82
701.19	1060.73
701.53	1062.14
701.86	1070.33
702.20	1074.07
702.54	1074.31
702.87	1069.86
703.21	1067.28
703.55	1061.90
703.88	1061.43
704.22	1055.58
704.55	1068.69
704.89	1075.48
705.23	1080.16
705.56	1080.16
705.90	1096.54
706.23	1085.54
706.57	1092.56
706.91	1099.12
707.24	1104.73
707.58	1098.88
707.91	1101.92
708.25	1093.26
708.58	1088.12
708.92	1082.26
709.26	1069.39
709.59	1073.84
709.93	1070.80
710.26	1075.01
710.60	1067.75
710.93	1071.97
711.27	1058.62
711.60	1059.56
711.94	1052.54
712.27	1061.43
712.61	1052.30
712.94	1057.92
713.28	1070.33
713.61	1070.80
713.95	1063.77
714.28	1081.56
714.62	1092.56
714.95	1077.82
715.29	1061.67
715.62	1065.18
715.96	1062.84
716.29	1050.20
716.63	1056.99
716.96	1067.99
717.29	1076.18
717.63	1079.69
717.96	1081.33
718.30	1066.58
718.63	1072.90
718.97	1068.69
719.30	1071.26
719.63	1068.45
719.97	1082.97
720.30	1073.84
720.64	1071.26
720.97	1061.20
721.30	1070.09
721.64	1067.52
721.97	1075.48
722.31	1085.77
722.64	1087.88
722.97	1092.09
723.31	1089.75
723.64	1092.80
723.97	1085.07
724.31	1088.35
724.64	1076.41
724.98	1072.20
725.31	1067.52
725.64	1064.01
725.98	1064.01
726.31	1073.37
726.64	1077.58
726.97	1082.26
727.31	1084.84
727.64	1079.46
727.97	1081.56
728.31	1078.28
728.64	1066.35
728.97	1059.09
729.31	1062.60
729.64	1060.26
729.97	1069.16
730.30	1073.37
730.64	1072.20
730.97	1076.88
731.30	1076.88
731.63	1077.58
731.97	1076.65
732.30	1086.48
732.63	1078.52
732.96	1075.94
733.30	1075.01
733.63	1067.99
733.96	1066.35
734.29	1060.03
734.63	1046.22
734.96	1042.24
735.29	1049.03
735.62	1047.62
735.95	1054.18
736.29	1076.65
736.62	1080.39
736.95	1091.16
737.28	1096.07
737.61	1103.80
737.94	1091.63
738.28	1091.39
738.61	1087.41
738.94	1082.50
739.27	1073.60
739.60	1079.22
739.93	1074.77
740.27	1079.69
740.60	1077.82
740.93	1080.39
741.26	1076.88
741.59	1073.60
741.92	1067.05
742.25	1051.84
742.58	1054.41
742.91	1061.20
743.25	1058.62
743.58	1054.41
743.91	1075.94
744.24	1083.90
744.57	1075.94
744.90	1087.41
745.23	1093.50
745.56	1083.20
745.89	1064.48
746.22	1067.05
746.55	1056.05
746.88	1062.37
747.21	1068.45
747.54	1072.20
747.87	1070.09
748.20	1079.69
748.53	1067.28
748.87	1071.26
749.20	1078.05
749.53	1081.80
749.86	1085.07
750.19	1105.44
750.52	1102.16
750.85	1102.39
751.18	1098.18
751.51	1089.75
751.84	1065.18
752.16	1065.18
752.49	1061.20
752.82	1055.82
753.15	1064.24
753.48	1072.67
753.81	1066.11
754.14	1066.35
754.47	1063.77
754.80	1062.37
755.13	1063.31
755.46	1064.71
755.79	1064.71
756.12	1080.86
756.45	1084.60
756.78	1090.92
757.11	1092.80
757.43	1092.80
757.76	1091.63
758.09	1081.56
758.42	1074.54
758.75	1067.99
759.08	1080.39
759.41	1071.03
759.74	1065.65
760.07	1069.16
760.39	1084.84
760.72	1078.99
761.05	1088.82
761.38	1098.65
761.71	1100.99
762.04	1086.71
762.36	1081.56
762.69	1073.37
763.02	1073.84
763.35	1070.56
763.68	1076.41
764.01	1074.31
764.33	1078.28
764.66	1079.46
764.99	1076.65
765.32	1077.82
765.65	1083.20
765.97	1082.26
766.30	1085.77
766.63	1086.24
766.96	1090.69
767.28	1091.16
767.61	1085.07
767.94	1082.26
768.27	1072.20
768.59	1080.86
768.92	1089.29
769.25	1102.63
769.58	1100.29
769.90	1111.75
770.23	1099.58
770.56	1091.16
770.89	1085.54
771.21	1083.90
771.54	1082.26
771.87	1073.37
772.19	1075.01
772.52	1068.69
772.85	1065.41
773.17	1060.03
773.50	1063.31
773.83	1058.16
774.15	1060.26
774.48	1050.20
774.81	1052.77
775.13	1062.84
775.46	1064.48
775.79	1064.71
776.11	1072.20
776.44	1078.05
776.77	1082.73
777.09	1087.41
777.42	1090.92
777.74	1093.50
778.07	1091.63
778.40	1073.37
778.72	1059.09
779.05	1055.11
779.37	1055.58
779.70	1046.22
780.03	1058.62
780.35	1072.43
780.68	1069.39
781.00	1067.05
781.33	1075.71
781.65	1072.43
781.98	1062.84
782.31	1071.73
782.63	1079.22
782.96	1075.01
783.28	1080.63
783.61	1080.63
783.93	1077.11
784.26	1074.54
784.58	1079.69
784.91	1062.84
785.23	1068.69
785.56	1074.07
785.88	1064.24
786.21	1059.79
786.53	1073.37
786.86	1070.80
787.18	1067.52
787.51	1077.82
787.83	1073.84
788.16	1068.45
788.48	1073.84
788.81	1071.97
789.13	1077.58
789.46	1085.54
789.78	1086.01
790.10	1087.41
790.43	1087.18
790.75	1083.43
791.08	1085.31
791.40	1077.58
791.73	1078.99
792.05	1083.90
792.37	1080.16
792.70	1073.60
793.02	1080.16
793.35	1071.26
793.67	1070.33
793.99	1069.39
794.32	1071.97
794.64	1075.48
794.96	1078.75
795.29	1072.67
795.61	1070.33
795.93	1064.71
796.26	1067.52
796.58	1071.03
796.91	1079.46
797.23	1080.63
797.55	1083.67
797.87	1076.65
798.20	1071.50
798.52	1061.67
798.84	1064.01
799.17	1076.41
799.49	1078.05
799.81	1073.37
800.14	1077.58
800.46	1074.31
800.78	1064.24
801.10	1067.28
801.43	1074.77
801.75	1067.52
802.07	1073.60
802.40	1074.54
802.72	1068.22
803.04	1065.88
803.36	1066.82
803.69	1068.69
804.01	1068.69
804.33	1074.77
804.65	1075.01
804.97	1082.03
805.30	1071.97
805.62	1064.24
805.94	1062.60
806.26	1063.31
806.58	1064.71
806.91	1070.56
807.23	1078.75
807.55	1076.65
807.87	1073.84
808.19	1077.35
808.52	1075.48
808.84	1075.01
809.16	1069.86
809.48	1071.50
809.80	1072.20
810.12	1071.73
810.44	1079.46
810.77	1093.73
811.09	1104.97
811.41	1108.48
811.73	1117.61
812.05	1115.03
812.37	1107.54
812.69	1102.16
813.01	1096.07
813.33	1087.41
813.66	1078.52
813.98	1083.43
814.30	1082.97
814.62	1078.52
814.94	1082.26
815.26	1086.94
815.58	1075.01
815.90	1060.26
816.22	1059.09
816.54	1058.86
816.86	1053.71
817.18	1066.58
817.50	1075.01
817.82	1078.05
818.14	1089.05
818.46	1099.35
818.78	1094.67
819.10	1091.16
819.42	1085.31
819.74	1075.71
820.06	1067.75
820.38	1067.05
820.70	1071.73
821.02	1077.11
821.34	1069.16
821.66	1072.90
821.98	1078.05
822.30	1075.48
822.62	1070.33
822.94	1084.84
823.26	1082.26
823.58	1076.41
823.90	1070.56
824.22	1071.26
824.54	1058.16
824.86	1055.82
825.18	1055.35
825.50	1073.14
825.81	1082.50
826.13	1095.84
826.45	1106.84
826.77	1113.16
827.09	1100.75
827.41	1091.63
827.73	1076.88
828.05	1074.31
828.36	1070.80
828.68	1075.01
829.00	1073.37
829.32	1080.39
829.64	1071.26
829.96	1069.16
830.28	1069.39
830.59	1075.94
830.91	1071.03
831.23	1071.73
831.55	1076.41
831.87	1071.73
832.19	1075.24
832.50	1079.46
832.82	1080.39
833.14	1077.35
833.46	1080.39
833.78	1071.97
834.09	1073.37
834.41	1073.14
834.73	1072.43
835.05	1061.43
835.36	1062.37
835.68	1060.50
836.00	1068.69
836.32	1069.16
836.63	1084.84
836.95	1085.31
837.27	1081.33
837.59	1075.94
837.90	1071.97
838.22	1065.88
838.54	1068.92
838.85	1074.31
839.17	1080.63
839.49	1088.82
839.80	1092.09
840.12	1099.82
840.44	1097.71
840.76	1094.90
841.07	1096.07
841.39	1091.16
841.71	1086.48
842.02	1082.50
842.34	1080.16
842.65	1073.84
842.97	1074.54
843.29	1072.90
843.60	1072.20
843.92	1071.26
844.24	1065.41
844.55	1070.09
844.87	1075.94
845.18	1078.52
845.50	1084.60
845.82	1099.82
846.13	1096.54
846.45	1087.41
846.76	1099.35
847.08	1104.03
847.40	1103.33
847.71	1108.01
848.03	1114.56
848.34	1110.35
848.66	1095.37
848.97	1078.52
849.29	1077.35
849.60	1074.54
849.92	1067.28
850.24	1065.41
850.55	1087.18
850.87	1088.58
851.18	1083.43
851.50	1088.82
851.81	1086.48
852.13	1081.56
852.44	1080.16
852.76	1092.09
853.07	1091.16
853.39	1100.05
853.70	1093.03
854.01	1091.63
854.33	1078.28
854.64	1071.73
854.96	1076.88
855.27	1079.22
855.59	1073.84
855.90	1072.43
856.22	1076.18
856.53	1079.46
856.84	1076.88
857.16	1081.80
857.47	1082.26
857.79	1086.24
858.10	1077.58
858.41	1072.67
858.73	1080.16
859.04	1076.65
859.36	1066.82
859.67	1067.05
859.98	1072.20
860.30	1069.62
860.61	1083.90
860.92	1092.56
861.24	1089.99
861.55	1083.90
861.87	1079.92
862.18	1072.67
862.49	1069.62
862.81	1065.41
863.12	1064.94
863.43	1063.54
863.74	1057.69
864.06	1051.84
864.37	1058.62
864.68	1063.77
865.00	1062.37
865.31	1064.01
865.62	1073.14
865.94	1075.24
866.25	1069.16
866.56	1065.88
866.87	1071.73
867.19	1067.75
867.50	1059.79
867.81	1065.18
868.12	1075.48
868.44	1075.01
868.75	1066.35
869.06	1071.50
869.37	1073.14
869.68	1062.84
870.00	1060.03
870.31	1076.18
870.62	1079.22
870.93	1079.92
871.24	1086.24
871.56	1091.63
871.87	1076.41
872.18	1078.52
872.49	1074.31
872.80	1074.54
873.12	1083.67
873.43	1094.90
873.74	1089.29
874.05	1087.65
874.36	1092.80
874.67	1075.94
874.98	1078.99
875.29	1078.52
875.61	1083.43
875.92	1075.71
876.23	1082.73
876.54	1082.73
876.85	1088.12
877.16	1092.09
877.47	1094.90
877.78	1097.71
878.09	1090.92
878.40	1088.12
878.72	1080.86
879.03	1094.20
879.34	1090.92
879.65	1097.95
879.96	1095.37
880.27	1102.86
880.58	1086.01
880.89	1077.82
881.20	1066.11
881.51	1056.05
881.82	1059.79
882.13	1058.16
882.44	1062.60
882.75	1071.73
883.06	1085.07
883.37	1076.41
883.68	1079.92
883.99	1080.63
884.30	1078.99
884.61	1078.75
884.92	1073.14
885.23	1073.14
885.54	1077.11
885.85	1075.71
886.16	1072.90
886.47	1084.37
886.78	1097.24
887.08	1096.54
887.39	1086.94
887.70	1084.14
888.01	1080.63
888.32	1074.54
888.63	1064.94
888.94	1081.56
889.25	1089.29
889.56	1086.94
889.87	1073.84
890.17	1082.26
890.48	1078.99
890.79	1076.18
891.10	1079.22
891.41	1084.84
891.72	1078.28
892.03	1072.90
892.34	1074.07
892.64	1069.39
892.95	1071.97
893.26	1086.01
893.57	1088.82
893.88	1079.69
894.18	1074.31
894.49	1072.43
894.80	1065.65
895.11	1067.05
895.42	1065.41
895.72	1076.41
896.03	1076.41
896.34	1085.31
896.65	1075.94
896.96	1083.67
897.26	1086.71
897.57	1087.65
897.88	1073.37
898.19	1077.35
898.49	1083.90
898.80	1089.52
899.11	1085.07
899.41	1092.56
899.72	1096.31
900.03	1094.20
900.34	1092.33
900.64	1097.95
900.95	1084.14
901.26	1085.77
901.56	1082.50
901.87	1066.11
902.18	1061.67
902.48	1075.94
902.79	1074.07
903.10	1069.62
903.40	1081.33
903.71	1081.33
904.02	1079.22
904.32	1079.92
904.63	1091.39
904.94	1088.82
905.24	1086.48
905.55	1083.67
905.85	1085.07
906.16	1080.16
906.47	1073.60
906.77	1084.84
907.08	1090.69
907.38	1083.67
907.69	1084.84
908.00	1084.84
908.30	1083.67
908.61	1075.48
908.91	1072.90
909.22	1065.65
909.52	1075.24
909.83	1075.24
910.14	1077.35
910.44	1080.39
910.75	1081.33
911.05	1072.43
911.36	1061.90
911.66	1060.50
911.97	1059.09
912.27	1056.99
912.58	1065.41
912.88	1069.86
913.19	1077.58
913.49	1073.60
913.80	1077.82
914.10	1069.86
914.41	1070.33
914.71	1060.50
915.01	1069.62
915.32	1070.33
915.62	1078.05
915.93	1064.48
916.23	1068.92
916.54	1071.50
916.84	1069.86
917.15	1064.48
917.45	1078.75
917.75	1083.43
918.06	1072.90
918.36	1071.73
918.67	1078.28
918.97	1078.99
919.27	1073.37
919.58	1075.01
919.88	1075.94
920.18	1067.75
920.49	1064.71
920.79	1056.99
921.10	1063.31
921.40	1064.71
921.70	1064.48
922.01	1066.82
922.31	1075.01
922.61	1075.48
922.92	1078.05
923.22	1076.41
923.52	1069.86
923.82	1068.22
924.13	1062.37
924.43	1071.73
924.73	1079.46
925.04	1083.43
925.34	1085.31
925.64	1092.33
925.94	1083.20
926.25	1083.43
926.55	1079.22
926.85	1078.52
927.15	1071.03
927.46	1049.50
927.76	1034.28
928.06	1042.94
928.36	1038.96
928.67	1042.71
928.97	1056.99
929.27	1064.01
929.57	1058.16
929.87	1060.26
930.18	1060.50
930.48	1056.52
930.78	1057.22
931.08	1059.56
931.38	1061.20
931.69	1061.90
931.99	1071.97
932.29	1075.01
932.59	1080.86
932.89	1086.01
933.19	1082.50
933.49	1080.86
933.80	1086.48
934.10	1089.52
934.40	1089.75
934.70	1091.39
935.00	1086.94
935.30	1077.82
935.60	1067.05
935.90	1060.96
936.20	1055.58
936.50	1050.67
936.81	1056.28
937.11	1058.86
937.41	1061.43
937.71	1069.16
938.01	1075.71
938.31	1077.58
938.61	1071.03
938.91	1078.99
939.21	1080.39
939.51	1086.94
939.81	1079.92
940.11	1089.75
940.41	1083.90
940.71	1087.18
941.01	1086.94
941.31	1093.50
941.61	1099.58
941.91	1093.73
942.21	1084.14
942.51	1080.16
942.81	1089.75
943.11	1078.75
943.41	1075.94
943.71	1079.22
944.01	1077.11
944.31	1068.69
944.61	1072.43
944.90	1066.82
945.20	1060.96
945.50	1059.09
945.80	1056.99
946.10	1054.65
946.40	1068.92
946.70	1078.75
947.00	1085.07
947.30	1084.14
947.60	1083.90
947.89	1090.22
948.19	1083.20
948.49	1085.31
948.79	1086.24
949.09	1082.50
949.39	1081.56
949.69	1083.20
949.98	1076.41
950.28	1075.01
950.58	1079.22
950.88	1061.90
951.18	1068.69
951.48	1071.26
951.77	1071.50
952.07	1073.84
952.37	1082.03
952.67	1082.73
952.97	1084.37
953.26	1085.07
953.56	1078.52
953.86	1075.48
954.16	1077.35
954.45	1080.16
954.75	1081.80
955.05	1091.39
955.35	1095.84
955.64	1090.69
955.94	1086.01
956.24	1089.29
956.54	1080.16
956.83	1077.35
957.13	1071.26
957.43	1071.50
957.72	1066.58
958.02	1072.20
958.32	1074.54
958.61	1072.90
958.91	1056.28
959.21	1057.92
959.50	1064.48
959.80	1075.94
960.10	1081.33
960.39	1104.50
960.69	1095.14
960.99	1087.65
961.28	1069.39
961.58	1060.73
961.87	1057.69
962.17	1073.14
962.47	1072.67
962.76	1077.35
963.06	1086.94
963.36	1082.97
963.65	1076.18
963.95	1079.69
964.24	1076.18
964.54	1085.31
964.83	1081.80
965.13	1082.73
965.42	1076.65
965.72	1077.35
966.02	1073.14
966.31	1065.41
966.61	1054.88
966.90	1054.65
967.20	1061.90
967.49	1063.31
967.79	1074.54
968.08	1076.41
968.38	1079.92
968.67	1064.01
968.97	1062.84
969.26	1068.69
969.56	1069.16
969.85	1077.11
970.15	1092.56
970.44	1087.88
970.74	1080.86
971.03	1083.20
971.32	1071.03
971.62	1087.41
971.91	1085.07
972.21	1093.97
972.50	1102.86
972.80	1100.05
973.09	1086.94
973.38	1082.50
973.68	1081.80
973.97	1065.65
974.27	1061.43
974.56	1046.22
974.85	1054.41
975.15	1044.58
975.44	1047.86
975.73	1062.84
976.03	1074.77
976.32	1071.73
976.61	1079.92
976.91	1080.63
977.20	1068.22
977.49	1063.31
977.79	1065.41
978.08	1056.52
978.37	1052.54
978.67	1058.62
978.96	1055.82
979.25	1054.18
979.55	1052.54
979.84	1054.65
980.13	1050.43
980.42	1060.26
980.72	1051.37
981.01	1057.45
981.30	1068.45
981.59	1067.28
981.89	1064.94
982.18	1075.01
982.47	1078.05
982.76	1080.86
983.06	1087.41
983.35	1082.03
983.64	1086.48
983.93	1078.99
984.22	1066.35
984.52	1076.41
984.81	1078.75
985.10	1069.62
985.39	1078.28
985.68	1091.39
985.97	1089.99
986.27	1088.35
986.56	1089.29
986.85	1084.60
987.14	1087.88
987.43	1076.18
987.72	1074.07
988.01	1085.31
988.31	1087.41
988.60	1075.48
988.89	1083.90
989.18	1088.35
989.47	1083.43
989.76	1074.77
990.05	1071.50
990.34	1071.26
990.63	1074.54
990.92	1069.39
991.21	1079.22
991.51	1089.75
991.80	1093.97
992.09	1096.07
992.38	1101.46
992.67	1095.60
992.96	1095.84
993.25	1096.07
993.54	1095.14
993.83	1098.18
994.12	1104.26
994.41	1097.01
994.70	1082.26
994.99	1076.65
995.28	1070.56
995.57	1069.39
995.86	1081.56
996.15	1094.20
996.44	1095.84
996.73	1095.37
997.02	1096.31
997.31	1081.33
997.59	1081.09
997.88	1077.82
998.17	1082.50
998.46	1092.09
998.75	1106.37
999.04	1085.07
999.33	1092.09
999.62	1084.60
999.91	1070.09
1000.20	1069.16
1000.49	1086.94
1000.77	1081.33
1001.06	1077.58
1001.35	1078.75
1001.64	1076.18
1001.93	1072.67
1002.22	1071.50
1002.51	1071.26
1002.79	1070.56
1003.08	1068.92
1003.37	1066.82
1003.66	1070.56
1003.95	1079.69
1004.23	1082.03
1004.52	1078.28
1004.81	1087.65
1005.10	1089.05
1005.39	1088.58
1005.67	1089.52
1005.96	1086.71
1006.25	1074.77
1006.54	1062.60
1006.83	1062.14
1007.11	1060.50
1007.40	1064.24
1007.69	1066.58
1007.97	1074.07
1008.26	1081.09
1008.55	1075.94
1008.84	1073.14
1009.12	1075.01
1009.41	1076.41
1009.70	1072.43
1009.98	1073.14
1010.27	1079.22
1010.56	1084.37
1010.85	1091.16
1011.13	1093.97
1011.42	1088.35
1011.71	1077.11
1011.99	1071.73
1012.28	1068.69
1012.56	1064.71
1012.85	1072.67
1013.14	1073.14
1013.42	1066.11
1013.71	1069.86
1014.00	1069.16
1014.28	1067.99
1014.57	1078.05
1014.85	1090.22
1015.14	1087.41
1015.43	1086.48
1015.71	1088.58
1016.00	1078.28
1016.28	1075.48
1016.57	1075.94
1016.85	1077.35
1017.14	1084.60
1017.43	1098.18
1017.71	1103.09
1018.00	1112.69
1018.28	1105.90
1018.57	1100.29
1018.85	1089.75
1019.14	1086.01
1019.42	1076.41
1019.71	1076.65
1019.99	1077.82
1020.28	1082.26
1020.56	1086.48
1020.85	1079.92
1021.13	1084.84
1021.42	1082.26
1021.70	1085.31
1021.99	1075.24
1022.27	1085.07
1022.55	1060.26
1022.84	1112.92
>>>>>End Processed Spectral Data<<<<<
