SpectraSuite Data File
++++++++++++++++++++++++++++++++++++
Date: Mon Aug 26 10:24:32 PDT 2019
User: corrico
Dark Spectrum Present: No
Reference Spectrum Present: No
Number of Sampled Component Spectra: 1
Spectrometers: USB2+H06089
Integration Time (usec): 10000 (USB2+H06089)
Spectra Averaged: 2 (USB2+H06089)
Boxcar Smoothing: 2 (USB2+H06089)
Correct for Electrical Dark: No (USB2+H06089)
Strobe/Lamp Enabled: No (USB2+H06089)
Correct for Detector Non-linearity: No (USB2+H06089)
Correct for Stray Light: No (USB2+H06089)
Number of Pixels in Processed Spectrum: 2048
>>>>>Begin Processed Spectral Data<<<<<
339.70	1019.30
340.07	1019.30
340.45	993.09
340.82	972.49
341.19	950.26
341.57	930.13
341.94	913.98
342.31	905.79
342.69	899.94
343.06	887.06
343.43	884.49
343.81	882.85
344.18	893.38
344.55	901.34
344.93	919.83
345.30	926.15
345.67	935.04
346.04	942.77
346.42	957.98
346.79	951.19
347.16	964.77
347.54	978.81
347.91	983.26
348.28	978.34
348.65	993.32
349.03	997.07
349.40	1007.13
349.77	1021.18
350.14	1031.71
350.52	1044.82
350.89	1039.43
351.26	1039.90
351.63	1039.90
352.01	1052.54
352.38	1051.13
352.75	1059.79
353.12	1055.35
353.50	1050.20
353.87	1038.50
354.24	1036.16
354.61	1046.45
354.98	1050.67
355.36	1052.07
355.73	1061.20
356.10	1066.58
356.47	1059.56
356.84	1053.24
357.22	1058.62
357.59	1066.58
357.96	1069.39
358.33	1070.33
358.70	1084.14
359.08	1083.90
359.45	1075.24
359.82	1075.94
360.19	1075.71
360.56	1072.43
360.94	1078.75
361.31	1085.31
361.68	1090.92
362.05	1095.37
362.42	1087.88
362.79	1082.97
363.16	1073.37
363.54	1073.14
363.91	1075.48
364.28	1082.97
364.65	1080.39
365.02	1080.86
365.39	1075.94
365.76	1062.14
366.14	1059.33
366.51	1060.96
366.88	1055.82
367.25	1051.13
367.62	1057.92
367.99	1052.07
368.36	1047.62
368.73	1054.41
369.10	1055.35
369.48	1062.37
369.85	1059.79
370.22	1061.20
370.59	1061.43
370.96	1060.96
371.33	1045.05
371.70	1059.79
372.07	1048.09
372.44	1049.50
372.81	1053.48
373.18	1067.28
373.55	1070.09
373.93	1086.71
374.30	1084.37
374.67	1091.39
375.04	1083.20
375.41	1076.41
375.78	1072.67
376.15	1079.22
376.52	1076.65
376.89	1088.58
377.26	1082.26
377.63	1079.46
378.00	1065.18
378.37	1060.03
378.74	1049.03
379.11	1048.33
379.48	1056.05
379.85	1056.99
380.22	1054.88
380.59	1059.09
380.96	1062.14
381.33	1061.67
381.70	1063.31
382.07	1060.73
382.44	1062.14
382.81	1058.86
383.18	1060.50
383.55	1063.77
383.92	1063.77
384.29	1066.58
384.66	1070.80
385.03	1066.35
385.40	1064.71
385.77	1070.33
386.14	1067.75
386.51	1065.65
386.88	1064.71
387.25	1056.05
387.62	1063.07
387.99	1054.41
388.36	1061.67
388.73	1072.67
389.10	1085.54
389.46	1081.33
389.83	1089.05
390.20	1102.86
390.57	1092.09
390.94	1084.14
391.31	1074.07
391.68	1066.11
392.05	1047.16
392.42	1039.67
392.79	1045.05
393.16	1047.86
393.53	1055.82
393.89	1057.22
394.26	1073.37
394.63	1076.65
395.00	1081.09
395.37	1084.14
395.74	1078.52
396.11	1071.97
396.48	1063.07
396.84	1067.52
397.21	1070.09
397.58	1081.80
397.95	1076.88
398.32	1085.54
398.69	1083.20
399.06	1070.09
399.42	1070.56
399.79	1075.48
400.16	1076.41
400.53	1078.28
400.90	1080.39
401.27	1071.03
401.64	1075.01
402.00	1077.58
402.37	1071.73
402.74	1084.14
403.11	1090.69
403.48	1087.18
403.84	1087.65
404.21	1100.29
404.58	1092.56
404.95	1082.73
405.32	1079.46
405.68	1064.94
406.05	1053.01
406.42	1054.41
406.79	1056.28
407.16	1057.69
407.52	1067.52
407.89	1077.35
408.26	1080.16
408.63	1086.24
408.99	1089.05
409.36	1088.58
409.73	1081.56
410.10	1076.65
410.47	1069.62
410.83	1069.39
411.20	1065.41
411.57	1063.07
411.94	1070.80
412.30	1070.09
412.67	1069.62
413.04	1076.88
413.40	1075.24
413.77	1060.73
414.14	1067.05
414.51	1062.37
414.87	1056.52
415.24	1062.14
415.61	1072.43
415.97	1072.20
416.34	1075.48
416.71	1095.14
417.08	1091.63
417.44	1090.46
417.81	1088.82
418.18	1090.46
418.54	1070.56
418.91	1074.54
419.28	1076.41
419.64	1092.33
420.01	1086.94
420.38	1090.46
420.74	1089.52
421.11	1087.18
421.48	1077.35
421.84	1085.31
422.21	1088.58
422.58	1089.99
422.94	1089.75
423.31	1090.92
423.68	1083.43
424.04	1082.03
424.41	1074.54
424.77	1073.37
425.14	1066.58
425.51	1071.03
425.87	1072.20
426.24	1079.69
426.61	1076.18
426.97	1085.54
427.34	1083.67
427.70	1082.03
428.07	1089.52
428.44	1093.03
428.80	1086.94
429.17	1088.58
429.53	1089.05
429.90	1082.73
430.27	1085.77
430.63	1083.67
431.00	1078.28
431.36	1076.65
431.73	1078.75
432.09	1077.58
432.46	1085.54
432.83	1087.88
433.19	1092.56
433.56	1094.90
433.92	1103.56
434.29	1100.99
434.65	1107.07
435.02	1110.82
435.38	1088.58
435.75	1080.86
436.11	1086.48
436.48	1086.71
436.84	1073.84
437.21	1093.03
437.57	1095.60
437.94	1096.07
438.30	1101.69
438.67	1106.14
439.03	1106.61
439.40	1104.26
439.76	1102.39
440.13	1086.01
440.49	1087.18
440.86	1076.65
441.22	1080.63
441.59	1073.60
441.95	1080.16
442.32	1085.54
442.68	1099.58
443.05	1097.48
443.41	1097.01
443.78	1097.24
444.14	1099.35
444.51	1093.03
444.87	1096.78
445.24	1100.52
445.60	1105.44
445.96	1099.12
446.33	1096.78
446.69	1093.03
447.06	1083.90
447.42	1089.75
447.79	1088.58
448.15	1090.46
448.51	1086.24
448.88	1095.84
449.24	1083.20
449.61	1087.41
449.97	1086.24
450.33	1103.80
450.70	1091.39
451.06	1097.01
451.43	1088.82
451.79	1092.80
452.15	1073.60
452.52	1084.60
452.88	1085.54
453.24	1096.78
453.61	1091.86
453.97	1098.18
454.34	1097.01
454.70	1095.60
455.06	1086.24
455.43	1081.56
455.79	1079.69
456.15	1075.48
456.52	1067.75
456.88	1075.48
457.24	1077.82
457.61	1078.99
457.97	1082.26
458.33	1087.18
458.70	1079.92
459.06	1073.84
459.42	1067.75
459.79	1073.84
460.15	1067.99
460.51	1075.01
460.88	1087.88
461.24	1090.69
461.60	1080.39
461.96	1081.33
462.33	1078.05
462.69	1074.31
463.05	1075.24
463.42	1081.56
463.78	1086.94
464.14	1082.97
464.50	1083.20
464.87	1071.73
465.23	1060.73
465.59	1064.48
465.95	1064.94
466.32	1053.94
466.68	1066.35
467.04	1076.41
467.40	1069.16
467.77	1068.22
468.13	1076.18
468.49	1080.16
468.85	1086.94
469.22	1095.14
469.58	1100.05
469.94	1100.05
470.30	1087.88
470.66	1081.56
471.03	1068.92
471.39	1061.20
471.75	1069.62
472.11	1084.14
472.47	1087.41
472.84	1093.50
473.20	1107.31
473.56	1094.20
473.92	1083.67
474.28	1077.11
474.65	1072.43
475.01	1067.05
475.37	1072.67
475.73	1072.43
476.09	1078.52
476.45	1078.99
476.81	1063.31
477.18	1054.18
477.54	1058.86
477.90	1052.30
478.26	1044.35
478.62	1054.88
478.98	1061.90
479.34	1073.60
479.71	1081.56
480.07	1086.71
480.43	1092.80
480.79	1100.99
481.15	1087.41
481.51	1076.88
481.87	1080.16
482.23	1071.03
482.59	1067.05
482.96	1067.52
483.32	1071.73
483.68	1070.56
484.04	1083.43
484.40	1075.94
484.76	1075.71
485.12	1071.50
485.48	1077.11
485.84	1067.99
486.20	1072.67
486.56	1073.60
486.92	1070.80
487.28	1069.62
487.64	1067.99
488.00	1076.41
488.37	1071.03
488.73	1081.09
489.09	1091.63
489.45	1093.26
489.81	1090.22
490.17	1093.03
490.53	1084.14
490.89	1060.50
491.25	1059.56
491.61	1061.20
491.97	1069.62
492.33	1066.35
492.69	1082.97
493.05	1074.54
493.41	1063.07
493.77	1059.79
494.13	1075.48
494.49	1067.28
494.85	1076.88
495.21	1078.99
495.57	1079.92
495.93	1090.22
496.29	1094.20
496.64	1085.31
497.00	1096.31
497.36	1088.58
497.72	1071.03
498.08	1066.35
498.44	1073.14
498.80	1064.01
499.16	1069.86
499.52	1068.69
499.88	1077.58
500.24	1073.60
500.60	1082.26
500.96	1088.35
501.32	1090.92
501.68	1090.46
502.03	1094.20
502.39	1079.92
502.75	1076.18
503.11	1071.73
503.47	1070.80
503.83	1076.65
504.19	1080.86
504.55	1078.28
504.91	1084.37
505.26	1086.48
505.62	1078.28
505.98	1090.46
506.34	1084.60
506.70	1087.65
507.06	1086.24
507.42	1091.86
507.78	1081.09
508.13	1086.94
508.49	1081.09
508.85	1075.24
509.21	1084.14
509.57	1082.03
509.93	1089.99
510.28	1091.63
510.64	1097.48
511.00	1091.63
511.36	1097.95
511.72	1091.39
512.07	1082.03
512.43	1074.07
512.79	1074.77
513.15	1079.46
513.51	1073.60
513.86	1085.31
514.22	1084.37
514.58	1070.09
514.94	1065.88
515.30	1067.99
515.65	1064.48
516.01	1071.03
516.37	1077.11
516.73	1070.80
517.08	1065.65
517.44	1054.65
517.80	1055.35
518.16	1059.79
518.51	1065.41
518.87	1065.18
519.23	1075.71
519.59	1072.67
519.94	1067.05
520.30	1055.11
520.66	1067.28
521.01	1064.71
521.37	1068.22
521.73	1078.75
522.09	1085.54
522.44	1082.73
522.80	1092.56
523.16	1097.01
523.51	1095.84
523.87	1097.48
524.23	1085.31
524.58	1070.33
524.94	1062.84
525.30	1058.16
525.65	1068.69
526.01	1072.20
526.37	1081.56
526.72	1086.71
527.08	1090.22
527.44	1079.69
527.79	1087.18
528.15	1079.22
528.51	1080.39
528.86	1076.65
529.22	1077.11
529.58	1082.26
529.93	1093.50
530.29	1082.73
530.65	1083.20
531.00	1080.16
531.36	1071.26
531.71	1067.75
532.07	1083.67
532.43	1092.56
532.78	1097.95
533.14	1099.58
533.49	1095.37
533.85	1092.09
534.21	1079.92
534.56	1080.16
534.92	1073.84
535.27	1072.90
535.63	1064.71
535.98	1062.84
536.34	1062.84
536.69	1068.92
537.05	1067.99
537.41	1071.26
537.76	1069.62
538.12	1067.99
538.47	1053.71
538.83	1064.24
539.18	1062.37
539.54	1062.37
539.89	1060.73
540.25	1079.22
540.60	1076.65
540.96	1080.39
541.31	1088.12
541.67	1090.46
542.02	1090.69
542.38	1092.80
542.73	1090.46
543.09	1089.29
543.44	1087.18
543.80	1078.75
544.15	1072.67
544.51	1075.24
544.86	1068.45
545.22	1072.67
545.57	1074.54
545.93	1079.69
546.28	1080.63
546.64	1086.01
546.99	1078.75
547.35	1080.16
547.70	1063.07
548.05	1062.84
548.41	1070.09
548.76	1074.54
549.12	1079.92
549.47	1094.90
549.83	1090.22
550.18	1092.33
550.53	1087.65
550.89	1086.01
551.24	1082.03
551.60	1084.14
551.95	1077.11
552.30	1081.33
552.66	1086.48
553.01	1091.63
553.37	1088.58
553.72	1085.07
554.07	1084.60
554.43	1077.11
554.78	1070.33
555.13	1069.86
555.49	1064.71
555.84	1061.43
556.19	1063.31
556.55	1068.92
556.90	1078.52
557.26	1080.86
557.61	1092.56
557.96	1094.90
558.32	1085.54
558.67	1079.69
559.02	1082.97
559.37	1082.73
559.73	1081.33
560.08	1092.09
560.43	1083.43
560.79	1097.95
561.14	1094.67
561.49	1093.73
561.85	1084.84
562.20	1102.63
562.55	1095.37
562.90	1089.29
563.26	1093.03
563.61	1100.05
563.96	1086.01
564.32	1082.03
564.67	1084.14
565.02	1068.45
565.37	1063.54
565.73	1067.52
566.08	1063.31
566.43	1057.45
566.78	1067.75
567.14	1060.26
567.49	1060.26
567.84	1063.07
568.19	1068.92
568.54	1067.52
568.90	1085.54
569.25	1084.60
569.60	1090.69
569.95	1092.09
570.31	1089.75
570.66	1082.26
571.01	1087.18
571.36	1083.20
571.71	1073.60
572.06	1078.05
572.42	1084.84
572.77	1080.39
573.12	1076.41
573.47	1081.56
573.82	1070.80
574.18	1062.84
574.53	1065.65
574.88	1067.99
575.23	1064.48
575.58	1067.52
575.93	1071.03
576.28	1064.71
576.64	1064.24
576.99	1065.88
577.34	1071.50
577.69	1075.71
578.04	1089.75
578.39	1090.69
578.74	1100.05
579.09	1102.16
579.44	1098.88
579.80	1093.73
580.15	1094.90
580.50	1089.29
580.85	1096.31
581.20	1089.05
581.55	1088.82
581.90	1086.48
582.25	1094.90
582.60	1083.20
582.95	1093.03
583.30	1088.58
583.65	1081.56
584.00	1071.97
584.35	1080.39
584.71	1077.82
585.06	1074.54
585.41	1089.99
585.76	1099.12
586.11	1092.80
586.46	1089.75
586.81	1088.35
587.16	1076.65
587.51	1064.24
587.86	1065.41
588.21	1064.01
588.56	1075.48
588.91	1088.35
589.26	1094.43
589.61	1089.75
589.96	1083.90
590.31	1075.24
590.66	1072.67
591.01	1069.39
591.36	1071.26
591.71	1076.41
592.06	1073.60
592.41	1067.28
592.76	1078.75
593.10	1083.43
593.45	1087.88
593.80	1091.39
594.15	1089.52
594.50	1089.05
594.85	1099.12
595.20	1085.31
595.55	1078.52
595.90	1082.26
596.25	1070.80
596.60	1056.52
596.95	1066.35
597.30	1067.05
597.64	1117.84
597.99	1121.58
598.34	1127.44
598.69	1120.65
599.04	1124.86
599.39	1076.41
599.74	1084.60
600.09	1088.12
600.44	1104.73
600.78	1108.24
601.13	1105.20
601.48	1097.24
601.83	1096.54
602.18	1086.24
602.53	1086.48
602.88	1088.58
603.22	1094.90
603.57	1090.92
603.92	1094.20
604.27	1096.78
604.62	1094.20
604.97	1084.84
605.31	1087.41
605.66	1083.43
606.01	1082.26
606.36	1087.18
606.71	1088.58
607.05	1082.50
607.40	1090.46
607.75	1088.35
608.10	1086.24
608.44	1090.46
608.79	1093.26
609.14	1091.39
609.49	1092.33
609.84	1092.09
610.18	1086.94
610.53	1096.78
610.88	1099.12
611.23	1106.61
611.57	1105.67
611.92	1100.99
612.27	1089.99
612.62	1083.67
612.96	1061.43
613.31	1060.73
613.66	1065.65
614.00	1066.11
614.35	1067.05
614.70	1084.60
615.05	1081.80
615.39	1093.26
615.74	1093.50
616.09	1094.43
616.43	1086.24
616.78	1087.88
617.13	1082.73
617.47	1075.71
617.82	1075.48
618.17	1072.43
618.51	1077.82
618.86	1069.86
619.21	1076.18
619.55	1080.63
619.90	1086.24
620.25	1078.28
620.59	1075.01
620.94	1071.50
621.29	1060.03
621.63	1057.92
621.98	1068.22
622.32	1085.31
622.67	1080.86
623.02	1094.67
623.36	1101.22
623.71	1087.41
624.05	1082.50
624.40	1096.54
624.75	1089.75
625.09	1088.35
625.44	1100.52
625.78	1090.69
626.13	1092.09
626.48	1096.07
626.82	1099.58
627.17	1090.69
627.51	1099.58
627.86	1088.35
628.20	1088.35
628.55	1079.92
628.89	1084.60
629.24	1084.84
629.58	1088.58
629.93	1079.92
630.28	1091.63
630.62	1094.67
630.97	1088.12
631.31	1082.26
631.66	1093.73
632.00	1080.86
632.35	1076.18
632.69	1083.43
633.04	1094.20
633.38	1092.33
633.73	1094.90
634.07	1099.58
634.42	1098.18
634.76	1086.24
635.11	1078.99
635.45	1076.41
635.79	1067.52
636.14	1056.28
636.48	1056.52
636.83	1056.75
637.17	1060.96
637.52	1068.45
637.86	1075.24
638.21	1071.50
638.55	1072.20
638.89	1078.28
639.24	1090.22
639.58	1092.33
639.93	1102.86
640.27	1104.97
640.61	1106.61
640.96	1087.88
641.30	1088.35
641.65	1076.18
641.99	1075.71
642.33	1072.90
642.68	1074.54
643.02	1062.14
643.37	1081.33
643.71	1086.24
644.05	1079.46
644.40	1085.07
644.74	1090.69
645.08	1081.09
645.43	1063.54
645.77	1071.73
646.11	1070.56
646.46	1070.09
646.80	1075.71
647.14	1092.80
647.49	1090.46
647.83	1076.65
648.17	1080.39
648.52	1076.65
648.86	1072.20
649.20	1061.90
649.55	1073.60
649.89	1072.90
650.23	1079.46
650.57	1073.84
650.92	1086.94
651.26	1083.20
651.60	1085.54
651.95	1078.99
652.29	1077.35
652.63	1074.31
652.97	1084.14
653.32	1091.86
653.66	1092.09
654.00	1091.63
654.34	1085.54
654.69	1087.65
655.03	1082.73
655.37	1076.65
655.71	1084.60
656.05	1090.22
656.40	1078.99
656.74	1075.01
657.08	1077.82
657.42	1072.20
657.76	1073.14
658.11	1067.75
658.45	1068.92
658.79	1073.37
659.13	1066.11
659.47	1059.56
659.82	1064.01
660.16	1064.94
660.50	1062.84
660.84	1066.58
661.18	1067.28
661.52	1078.05
661.87	1078.28
662.21	1080.16
662.55	1089.29
662.89	1091.86
663.23	1091.39
663.57	1094.90
663.91	1096.07
664.25	1090.46
664.60	1094.20
664.94	1091.16
665.28	1089.29
665.62	1079.22
665.96	1090.46
666.30	1093.97
666.64	1089.05
666.98	1076.18
667.32	1088.12
667.66	1076.65
668.01	1068.45
668.35	1073.60
668.69	1086.94
669.03	1078.28
669.37	1085.54
669.71	1087.88
670.05	1081.56
670.39	1078.75
670.73	1078.75
671.07	1080.39
671.41	1087.88
671.75	1095.84
672.09	1102.63
672.43	1110.35
672.77	1096.31
673.11	1085.31
673.45	1075.94
673.79	1070.56
674.13	1068.22
674.47	1071.97
674.81	1075.71
675.15	1078.05
675.49	1078.99
675.83	1080.16
676.17	1086.48
676.51	1083.67
676.85	1086.48
677.19	1084.60
677.53	1083.20
677.87	1073.84
678.21	1066.35
678.55	1070.80
678.89	1076.18
679.23	1075.48
679.57	1082.50
679.90	1091.63
680.24	1084.37
680.58	1077.58
680.92	1084.60
681.26	1090.46
681.60	1090.92
681.94	1092.80
682.28	1095.60
682.62	1090.92
682.96	1085.77
683.29	1087.18
683.63	1082.73
683.97	1086.48
684.31	1085.31
684.65	1088.58
684.99	1091.86
685.33	1099.12
685.67	1086.48
686.00	1078.05
686.34	1071.97
686.68	1062.14
687.02	1051.13
687.36	1048.33
687.70	1054.88
688.03	1055.35
688.37	1059.79
688.71	1071.50
689.05	1086.24
689.39	1098.65
689.72	1105.44
690.06	1106.61
690.40	1102.63
690.74	1092.33
691.08	1082.97
691.41	1081.56
691.75	1079.46
692.09	1083.43
692.43	1087.41
692.76	1083.90
693.10	1079.92
693.44	1082.26
693.78	1079.69
694.11	1087.88
694.45	1088.12
694.79	1091.16
695.13	1086.48
695.46	1087.88
695.80	1082.97
696.14	1080.39
696.48	1075.24
696.81	1073.84
697.15	1075.01
697.49	1068.92
697.82	1067.75
698.16	1074.54
698.50	1077.58
698.83	1068.45
699.17	1072.90
699.51	1076.41
699.84	1073.37
700.18	1072.67
700.52	1079.46
700.85	1076.88
701.19	1076.41
701.53	1075.24
701.86	1071.26
702.20	1068.69
702.54	1070.09
702.87	1072.90
703.21	1081.09
703.55	1082.73
703.88	1084.60
704.22	1084.60
704.55	1080.16
704.89	1078.52
705.23	1085.07
705.56	1080.16
705.90	1075.94
706.23	1075.48
706.57	1068.22
706.91	1074.54
707.24	1069.86
707.58	1061.43
707.91	1066.35
708.25	1069.86
708.58	1060.96
708.92	1067.52
709.26	1078.99
709.59	1084.60
709.93	1078.99
710.26	1069.16
710.60	1068.22
710.93	1074.77
711.27	1067.28
711.60	1070.09
711.94	1088.82
712.27	1094.43
712.61	1081.80
712.94	1082.26
713.28	1085.77
713.61	1080.16
713.95	1078.99
714.28	1085.77
714.62	1088.12
714.95	1086.94
715.29	1085.54
715.62	1084.14
715.96	1081.56
716.29	1086.24
716.63	1083.20
716.96	1076.65
717.29	1070.33
717.63	1080.63
717.96	1070.80
718.30	1072.67
718.63	1078.99
718.97	1081.33
719.30	1071.97
719.63	1075.94
719.97	1084.60
720.30	1077.11
720.64	1074.31
720.97	1073.14
721.30	1073.37
721.64	1059.33
721.97	1060.73
722.31	1063.54
722.64	1072.90
722.97	1078.52
723.31	1083.67
723.64	1087.41
723.97	1085.07
724.31	1080.39
724.64	1074.07
724.98	1072.90
725.31	1070.80
725.64	1071.97
725.98	1071.73
726.31	1068.92
726.64	1078.52
726.97	1082.26
727.31	1086.48
727.64	1081.56
727.97	1080.63
728.31	1069.62
728.64	1069.16
728.97	1066.82
729.31	1068.22
729.64	1073.84
729.97	1071.50
730.30	1073.14
730.64	1068.45
730.97	1069.39
731.30	1066.58
731.63	1076.41
731.97	1075.48
732.30	1078.52
732.63	1086.94
732.96	1089.52
733.30	1080.16
733.63	1082.26
733.96	1096.07
734.29	1086.01
734.63	1088.58
734.96	1100.75
735.29	1100.52
735.62	1096.78
735.95	1097.01
736.29	1093.03
736.62	1084.60
736.95	1085.54
737.28	1079.92
737.61	1092.56
737.94	1090.46
738.28	1095.14
738.61	1090.69
738.94	1095.37
739.27	1087.41
739.60	1078.75
739.93	1067.75
740.27	1068.45
740.60	1061.43
740.93	1067.05
741.26	1072.67
741.59	1078.05
741.92	1071.97
742.25	1077.11
742.58	1073.84
742.91	1079.92
743.25	1075.24
743.58	1079.46
743.91	1078.52
744.24	1069.39
744.57	1066.35
744.90	1073.37
745.23	1064.24
745.56	1059.09
745.89	1068.45
746.22	1070.33
746.55	1085.31
746.88	1092.80
747.21	1093.97
747.54	1090.46
747.87	1088.12
748.20	1074.31
748.53	1080.86
748.87	1084.60
749.20	1086.24
749.53	1081.56
749.86	1082.03
750.19	1080.16
750.52	1074.31
750.85	1068.69
751.18	1068.92
751.51	1058.39
751.84	1054.18
752.16	1056.28
752.49	1062.14
752.82	1068.92
753.15	1080.39
753.48	1076.18
753.81	1077.58
754.14	1075.01
754.47	1069.39
754.80	1056.05
755.13	1054.41
755.46	1059.79
755.79	1058.62
756.12	1067.05
756.45	1074.31
756.78	1075.01
757.11	1074.54
757.43	1070.33
757.76	1068.22
758.09	1073.37
758.42	1086.94
758.75	1086.01
759.08	1091.16
759.41	1093.26
759.74	1097.48
760.07	1094.67
760.39	1090.46
760.72	1099.12
761.05	1082.50
761.38	1067.99
761.71	1066.11
762.04	1072.43
762.36	1066.82
762.69	1077.35
763.02	1071.03
763.35	1069.86
763.68	1073.14
764.01	1083.20
764.33	1090.92
764.66	1106.84
764.99	1104.73
765.32	1097.48
765.65	1084.60
765.97	1084.14
766.30	1080.86
766.63	1089.52
766.96	1086.01
767.28	1078.99
767.61	1076.88
767.94	1086.48
768.27	1082.26
768.59	1089.52
768.92	1098.65
769.25	1092.09
769.58	1086.48
769.90	1086.01
770.23	1079.69
770.56	1074.54
770.89	1085.77
771.21	1088.35
771.54	1085.54
771.87	1085.54
772.19	1091.16
772.52	1075.48
772.85	1061.20
773.17	1066.35
773.50	1069.39
773.83	1068.45
774.15	1078.75
774.48	1085.77
774.81	1086.71
775.13	1089.29
775.46	1093.50
775.79	1094.20
776.11	1095.37
776.44	1096.78
776.77	1088.58
777.09	1092.09
777.42	1086.71
777.74	1083.67
778.07	1078.99
778.40	1082.73
778.72	1073.84
779.05	1076.65
779.37	1070.80
779.70	1075.48
780.03	1070.33
780.35	1066.58
780.68	1073.37
781.00	1085.77
781.33	1072.20
781.65	1076.41
781.98	1078.05
782.31	1080.63
782.63	1077.11
782.96	1091.63
783.28	1091.16
783.61	1086.94
783.93	1068.92
784.26	1066.35
784.58	1060.73
784.91	1055.11
785.23	1060.50
785.56	1066.82
785.88	1076.88
786.21	1074.54
786.53	1089.52
786.86	1088.82
787.18	1093.97
787.51	1087.65
787.83	1085.07
788.16	1069.62
788.48	1067.52
788.81	1066.11
789.13	1060.96
789.46	1063.07
789.78	1068.45
790.10	1067.05
790.43	1066.11
790.75	1066.82
791.08	1067.52
791.40	1062.60
791.73	1075.94
792.05	1070.80
792.37	1071.26
792.70	1060.96
793.02	1079.92
793.35	1071.73
793.67	1075.48
793.99	1080.39
794.32	1095.60
794.64	1085.31
794.96	1091.63
795.29	1089.05
795.61	1090.92
795.93	1092.80
796.26	1096.07
796.58	1092.56
796.91	1100.52
797.23	1096.78
797.55	1093.97
797.87	1087.65
798.20	1082.50
798.52	1081.09
798.84	1084.60
799.17	1075.94
799.49	1071.03
799.81	1075.48
800.14	1070.56
800.46	1071.26
800.78	1087.41
801.10	1093.73
801.43	1093.50
801.75	1104.03
802.07	1083.20
802.40	1076.18
802.72	1086.48
803.04	1081.56
803.36	1068.92
803.69	1092.09
804.01	1082.50
804.33	1085.07
804.65	1094.20
804.97	1094.43
805.30	1083.90
805.62	1089.52
805.94	1075.71
806.26	1062.37
806.58	1067.52
806.91	1081.09
807.23	1086.01
807.55	1083.90
807.87	1083.20
808.19	1075.71
808.52	1064.71
808.84	1062.60
809.16	1065.65
809.48	1071.50
809.80	1082.50
810.12	1086.94
810.44	1093.50
810.77	1096.78
811.09	1097.95
811.41	1096.31
811.73	1100.29
812.05	1090.69
812.37	1080.16
812.69	1086.24
813.01	1086.94
813.33	1077.11
813.66	1081.56
813.98	1093.50
814.30	1092.09
814.62	1087.41
814.94	1086.94
815.26	1084.37
815.58	1079.46
815.90	1083.43
816.22	1089.52
816.54	1096.54
816.86	1101.22
817.18	1110.12
817.50	1094.67
817.82	1082.50
818.14	1078.99
818.46	1071.26
818.78	1064.71
819.10	1064.71
819.42	1074.77
819.74	1069.16
820.06	1066.82
820.38	1064.48
820.70	1073.84
821.02	1069.86
821.34	1080.39
821.66	1086.24
821.98	1094.90
822.30	1088.58
822.62	1097.01
822.94	1086.94
823.26	1083.90
823.58	1076.65
823.90	1082.03
824.22	1070.80
824.54	1077.82
824.86	1080.86
825.18	1085.07
825.50	1078.75
825.81	1087.88
826.13	1078.28
826.45	1077.11
826.77	1075.24
827.09	1077.11
827.41	1071.73
827.73	1077.11
828.05	1066.58
828.36	1060.50
828.68	1064.94
829.00	1066.58
829.32	1064.94
829.64	1079.92
829.96	1086.01
830.28	1081.09
830.59	1081.09
830.91	1078.75
831.23	1090.22
831.55	1087.88
831.87	1091.86
832.19	1093.50
832.50	1100.99
832.82	1078.75
833.14	1075.24
833.46	1080.16
833.78	1080.63
834.09	1088.12
834.41	1095.60
834.73	1095.60
835.05	1094.43
835.36	1087.88
835.68	1075.48
836.00	1064.24
836.32	1069.16
836.63	1066.58
836.95	1069.16
837.27	1074.77
837.59	1078.99
837.90	1078.75
838.22	1080.86
838.54	1078.05
838.85	1078.75
839.17	1078.28
839.49	1075.71
839.80	1064.71
840.12	1067.52
840.44	1065.18
840.76	1086.24
841.07	1092.33
841.39	1102.63
841.71	1103.09
842.02	1100.75
842.34	1099.82
842.65	1100.29
842.97	1085.77
843.29	1082.73
843.60	1090.69
843.92	1086.48
844.24	1072.20
844.55	1090.46
844.87	1092.09
845.18	1090.22
845.50	1070.09
845.82	1074.31
846.13	1063.54
846.45	1065.41
846.76	1072.43
847.08	1080.16
847.40	1087.88
847.71	1090.92
848.03	1092.33
848.34	1082.73
848.66	1083.67
848.97	1079.92
849.29	1080.86
849.60	1076.65
849.92	1078.75
850.24	1082.97
850.55	1084.84
850.87	1079.46
851.18	1083.67
851.50	1079.69
851.81	1079.92
852.13	1070.80
852.44	1089.99
852.76	1085.54
853.07	1081.80
853.39	1069.86
853.70	1088.35
854.01	1074.07
854.33	1075.48
854.64	1078.75
854.96	1086.01
855.27	1074.54
855.59	1073.60
855.90	1073.84
856.22	1066.11
856.53	1067.99
856.84	1071.50
857.16	1068.45
857.47	1076.65
857.79	1083.43
858.10	1084.60
858.41	1087.88
858.73	1096.07
859.04	1089.52
859.36	1086.94
859.67	1082.26
859.98	1062.37
860.30	1060.73
860.61	1052.77
860.92	1063.54
861.24	1065.65
861.55	1080.86
861.87	1077.58
862.18	1081.09
862.49	1077.58
862.81	1072.20
863.12	1067.52
863.43	1068.69
863.74	1069.16
864.06	1065.88
864.37	1072.20
864.68	1077.35
865.00	1073.14
865.31	1073.84
865.62	1071.73
865.94	1070.33
866.25	1070.09
866.56	1068.45
866.87	1061.90
867.19	1060.03
867.50	1062.60
867.81	1058.86
868.12	1068.69
868.44	1072.90
868.75	1078.28
869.06	1072.90
869.37	1074.77
869.68	1067.28
870.00	1073.60
870.31	1070.56
870.62	1072.43
870.93	1071.50
871.24	1077.58
871.56	1073.14
871.87	1082.97
872.18	1087.65
872.49	1083.67
872.80	1082.97
873.12	1083.67
873.43	1067.75
873.74	1062.84
874.05	1057.22
874.36	1063.77
874.67	1068.45
874.98	1078.28
875.29	1077.35
875.61	1090.69
875.92	1081.09
876.23	1077.58
876.54	1076.41
876.85	1082.50
877.16	1078.05
877.47	1082.73
877.78	1085.07
878.09	1093.03
878.40	1084.84
878.72	1087.18
879.03	1086.71
879.34	1086.01
879.65	1080.63
879.96	1080.39
880.27	1081.09
880.58	1083.90
880.89	1076.88
881.20	1076.18
881.51	1087.41
881.82	1085.31
882.13	1079.22
882.44	1081.80
882.75	1082.03
883.06	1082.50
883.37	1076.18
883.68	1076.88
883.99	1082.03
884.30	1082.26
884.61	1076.88
884.92	1078.52
885.23	1085.31
885.54	1083.90
885.85	1088.58
886.16	1085.77
886.47	1091.86
886.78	1091.86
887.08	1095.37
887.39	1090.92
887.70	1088.12
888.01	1090.92
888.32	1088.35
888.63	1078.28
888.94	1078.05
889.25	1081.80
889.56	1086.71
889.87	1085.07
890.17	1099.12
890.48	1093.50
890.79	1092.56
891.10	1093.73
891.41	1089.99
891.72	1078.99
892.03	1076.41
892.34	1063.31
892.64	1053.01
892.95	1056.05
893.26	1066.11
893.57	1071.97
893.88	1088.12
894.18	1086.24
894.49	1092.80
894.80	1088.82
895.11	1088.35
895.42	1092.80
895.72	1088.12
896.03	1076.88
896.34	1085.07
896.65	1076.41
896.96	1071.03
897.26	1086.24
897.57	1087.41
897.88	1080.16
898.19	1084.37
898.49	1086.94
898.80	1078.28
899.11	1079.69
899.41	1079.22
899.72	1083.67
900.03	1086.24
900.34	1093.26
900.64	1091.86
900.95	1082.26
901.26	1081.33
901.56	1071.50
901.87	1066.11
902.18	1066.58
902.48	1085.54
902.79	1092.80
903.10	1084.84
903.40	1088.82
903.71	1092.80
904.02	1081.33
904.32	1070.80
904.63	1085.31
904.94	1072.20
905.24	1069.62
905.55	1073.14
905.85	1082.50
906.16	1077.82
906.47	1082.26
906.77	1084.60
907.08	1082.03
907.38	1086.01
907.69	1091.63
908.00	1093.26
908.30	1089.29
908.61	1091.86
908.91	1078.28
909.22	1076.41
909.52	1075.24
909.83	1080.16
910.14	1069.39
910.44	1068.22
910.75	1070.56
911.05	1077.58
911.36	1075.01
911.66	1088.58
911.97	1094.90
912.27	1085.07
912.58	1077.58
912.88	1076.41
913.19	1065.18
913.49	1070.80
913.80	1070.80
914.10	1077.11
914.41	1080.63
914.71	1083.90
915.01	1065.41
915.32	1067.05
915.62	1057.69
915.93	1045.05
916.23	1046.92
916.54	1052.07
916.84	1059.56
917.15	1062.60
917.45	1072.20
917.75	1078.28
918.06	1077.82
918.36	1078.99
918.67	1086.71
918.97	1079.22
919.27	1077.58
919.58	1076.65
919.88	1075.71
920.18	1072.20
920.49	1071.26
920.79	1067.05
921.10	1076.65
921.40	1071.50
921.70	1071.73
922.01	1082.26
922.31	1073.37
922.61	1074.31
922.92	1073.37
923.22	1074.31
923.52	1072.90
923.82	1086.48
924.13	1084.37
924.43	1080.63
924.73	1081.80
925.04	1082.03
925.34	1078.05
925.64	1078.28
925.94	1080.39
926.25	1076.41
926.55	1079.92
926.85	1078.75
927.15	1082.73
927.46	1095.60
927.76	1097.24
928.06	1093.73
928.36	1096.54
928.67	1094.67
928.97	1084.84
929.27	1077.58
929.57	1074.07
929.87	1075.01
930.18	1073.84
930.48	1075.94
930.78	1089.75
931.08	1094.20
931.38	1092.80
931.69	1094.67
931.99	1094.67
932.29	1088.82
932.59	1084.14
932.89	1084.37
933.19	1082.03
933.49	1077.82
933.80	1073.84
934.10	1078.05
934.40	1073.84
934.70	1061.20
935.00	1076.88
935.30	1086.24
935.60	1086.48
935.90	1087.65
936.20	1103.80
936.50	1092.33
936.81	1087.18
937.11	1077.58
937.41	1076.88
937.71	1079.46
938.01	1078.99
938.31	1077.35
938.61	1089.75
938.91	1090.92
939.21	1086.94
939.51	1089.52
939.81	1092.80
940.11	1084.84
940.41	1085.77
940.71	1079.22
941.01	1074.31
941.31	1072.43
941.61	1075.01
941.91	1069.16
942.21	1072.43
942.51	1069.39
942.81	1063.54
943.11	1060.73
943.41	1071.26
943.71	1078.99
944.01	1079.69
944.31	1080.63
944.61	1076.65
944.90	1079.46
945.20	1072.67
945.50	1070.56
945.80	1075.24
946.10	1077.82
946.40	1070.56
946.70	1079.69
947.00	1091.86
947.30	1087.41
947.60	1091.86
947.89	1099.58
948.19	1094.20
948.49	1077.82
948.79	1082.50
949.09	1083.43
949.39	1068.69
949.69	1064.24
949.98	1075.24
950.28	1071.50
950.58	1064.71
950.88	1074.77
951.18	1077.58
951.48	1080.63
951.77	1078.05
952.07	1096.31
952.37	1088.35
952.67	1086.01
952.97	1082.73
953.26	1082.03
953.56	1068.22
953.86	1077.82
954.16	1075.94
954.45	1080.16
954.75	1094.90
955.05	1096.31
955.35	1082.26
955.64	1082.26
955.94	1080.63
956.24	1066.82
956.54	1074.54
956.83	1089.99
957.13	1085.31
957.43	1087.88
957.72	1088.12
958.02	1082.73
958.32	1077.35
958.61	1070.33
958.91	1065.65
959.21	1077.82
959.50	1076.88
959.80	1076.41
960.10	1093.26
960.39	1091.86
960.69	1081.56
960.99	1085.31
961.28	1090.46
961.58	1083.67
961.87	1083.20
962.17	1081.09
962.47	1073.60
962.76	1054.18
963.06	1053.01
963.36	1045.99
963.65	1054.41
963.95	1058.62
964.24	1068.45
964.54	1069.62
964.83	1075.71
965.13	1076.41
965.42	1069.62
965.72	1072.20
966.02	1072.20
966.31	1071.50
966.61	1074.77
966.90	1088.82
967.20	1093.26
967.49	1093.03
967.79	1103.80
968.08	1108.48
968.38	1104.50
968.67	1092.80
968.97	1097.24
969.26	1079.92
969.56	1062.84
969.85	1054.88
970.15	1063.77
970.44	1066.35
970.74	1067.52
971.03	1071.50
971.32	1075.24
971.62	1070.09
971.91	1064.71
972.21	1073.60
972.50	1063.31
972.80	1070.80
973.09	1077.82
973.38	1092.09
973.68	1090.92
973.97	1103.09
974.27	1090.69
974.56	1081.80
974.85	1070.80
975.15	1080.16
975.44	1078.75
975.73	1080.39
976.03	1086.48
976.32	1071.73
976.61	1057.22
976.91	1060.03
977.20	1059.09
977.49	1045.75
977.79	1060.03
978.08	1052.54
978.37	1046.45
978.67	1044.11
978.96	1056.05
979.25	1053.94
979.55	1072.67
979.84	1072.20
980.13	1075.71
980.42	1082.26
980.72	1075.71
981.01	1071.97
981.30	1076.65
981.59	1077.11
981.89	1078.28
982.18	1087.65
982.47	1081.09
982.76	1086.48
983.06	1091.63
983.35	1081.33
983.64	1086.94
983.93	1084.60
984.22	1075.48
984.52	1068.92
984.81	1066.11
985.10	1060.50
985.39	1065.65
985.68	1073.84
985.97	1080.63
986.27	1079.46
986.56	1074.54
986.85	1075.48
987.14	1064.48
987.43	1063.54
987.72	1068.69
988.01	1077.11
988.31	1071.73
988.60	1078.52
988.89	1075.01
989.18	1075.94
989.47	1084.14
989.76	1097.01
990.05	1100.29
990.34	1105.90
990.63	1100.29
990.92	1083.90
991.21	1078.75
991.51	1070.80
991.80	1068.69
992.09	1082.50
992.38	1080.63
992.67	1073.14
992.96	1081.56
993.25	1079.22
993.54	1067.99
993.83	1070.80
994.12	1081.09
994.41	1078.52
994.70	1084.60
994.99	1094.20
995.28	1095.60
995.57	1083.67
995.86	1082.50
996.15	1073.14
996.44	1072.43
996.73	1076.18
997.02	1083.67
997.31	1087.88
997.59	1098.88
997.88	1088.82
998.17	1091.16
998.46	1085.07
998.75	1082.50
999.04	1079.92
999.33	1086.94
999.62	1088.58
999.91	1105.67
1000.20	1107.54
1000.49	1099.82
1000.77	1105.44
1001.06	1101.22
1001.35	1084.37
1001.64	1076.65
1001.93	1078.52
1002.22	1074.54
1002.51	1072.43
1002.79	1079.46
1003.08	1083.43
1003.37	1085.31
1003.66	1081.33
1003.95	1082.26
1004.23	1084.84
1004.52	1084.14
1004.81	1077.35
1005.10	1078.28
1005.39	1076.65
1005.67	1073.14
1005.96	1073.84
1006.25	1082.03
1006.54	1079.22
1006.83	1082.50
1007.11	1089.52
1007.40	1093.73
1007.69	1093.50
1007.97	1104.26
1008.26	1104.26
1008.55	1093.26
1008.84	1082.26
1009.12	1086.48
1009.41	1082.73
1009.70	1078.99
1009.98	1088.82
1010.27	1086.94
1010.56	1078.75
1010.85	1078.99
1011.13	1078.05
1011.42	1077.82
1011.71	1092.56
1011.99	1092.09
1012.28	1089.52
1012.56	1095.84
1012.85	1086.48
1013.14	1076.18
1013.42	1084.60
1013.71	1072.67
1014.00	1063.77
1014.28	1066.58
1014.57	1075.48
1014.85	1069.39
1015.14	1080.39
1015.43	1094.90
1015.71	1099.35
1016.00	1087.65
1016.28	1089.99
1016.57	1087.41
1016.85	1074.07
1017.14	1072.43
1017.43	1080.86
1017.71	1072.67
1018.00	1078.28
1018.28	1086.48
1018.57	1079.92
1018.85	1070.56
1019.14	1070.33
1019.42	1066.11
1019.71	1062.14
1019.99	1067.75
1020.28	1075.71
1020.56	1077.35
1020.85	1073.60
1021.13	1067.28
1021.42	1057.22
1021.70	1074.07
1021.99	1067.99
1022.27	1072.20
1022.55	1028.67
1022.84	1083.67
>>>>>End Processed Spectral Data<<<<<
