SpectraSuite Data File
++++++++++++++++++++++++++++++++++++
Date: Mon Aug 26 10:24:32 PDT 2019
User: corrico
Dark Spectrum Present: No
Reference Spectrum Present: No
Number of Sampled Component Spectra: 1
Spectrometers: USB2+H06089
Integration Time (usec): 10000 (USB2+H06089)
Spectra Averaged: 2 (USB2+H06089)
Boxcar Smoothing: 2 (USB2+H06089)
Correct for Electrical Dark: No (USB2+H06089)
Strobe/Lamp Enabled: No (USB2+H06089)
Correct for Detector Non-linearity: No (USB2+H06089)
Correct for Stray Light: No (USB2+H06089)
Number of Pixels in Processed Spectrum: 2048
>>>>>Begin Processed Spectral Data<<<<<
339.70	1019.30
340.07	1019.30
340.45	978.34
340.82	964.77
341.19	951.43
341.57	922.17
341.94	923.11
342.31	916.79
342.69	910.94
343.06	896.89
343.43	903.68
343.81	904.15
344.18	915.85
344.55	911.64
344.93	913.28
345.30	911.40
345.67	909.30
346.04	905.79
346.42	909.77
346.79	920.30
347.16	936.21
347.54	950.26
347.91	951.90
348.28	967.11
348.65	974.37
349.03	975.77
349.40	990.98
349.77	1009.00
350.14	1015.79
350.52	1031.94
350.89	1046.45
351.26	1045.28
351.63	1055.11
352.01	1061.90
352.38	1064.24
352.75	1069.86
353.12	1080.16
353.50	1077.82
353.87	1079.22
354.24	1077.35
354.61	1070.80
354.98	1068.69
355.36	1073.14
355.73	1066.35
356.10	1075.94
356.47	1074.07
356.84	1069.62
357.22	1080.86
357.59	1091.39
357.96	1084.14
358.33	1079.92
358.70	1088.82
359.08	1076.88
359.45	1074.77
359.82	1078.75
360.19	1088.12
360.56	1079.92
360.94	1074.07
361.31	1070.80
361.68	1062.84
362.05	1060.26
362.42	1061.20
362.79	1072.20
363.16	1077.58
363.54	1086.48
363.91	1080.86
364.28	1074.07
364.65	1071.03
365.02	1075.24
365.39	1078.28
365.76	1085.31
366.14	1093.03
366.51	1090.69
366.88	1085.07
367.25	1072.90
367.62	1073.14
367.99	1069.86
368.36	1068.69
368.73	1061.20
369.10	1071.03
369.48	1071.50
369.85	1081.09
370.22	1077.35
370.59	1078.52
370.96	1068.92
371.33	1068.45
371.70	1052.77
372.07	1057.22
372.44	1065.41
372.81	1066.11
373.18	1070.09
373.55	1074.77
373.93	1067.05
374.30	1061.90
374.67	1064.01
375.04	1057.45
375.41	1052.77
375.78	1053.71
376.15	1057.69
376.52	1051.84
376.89	1060.73
377.26	1069.86
377.63	1075.48
378.00	1071.97
378.37	1068.69
378.74	1060.96
379.11	1061.67
379.48	1059.79
379.85	1058.39
380.22	1074.07
380.59	1066.11
380.96	1063.54
381.33	1072.43
381.70	1073.14
382.07	1065.65
382.44	1078.52
382.81	1079.46
383.18	1074.31
383.55	1073.84
383.92	1076.18
384.29	1078.05
384.66	1078.75
385.03	1082.97
385.40	1080.86
385.77	1085.54
386.14	1079.69
386.51	1078.05
386.88	1064.94
387.25	1065.88
387.62	1058.16
387.99	1068.69
388.36	1074.07
388.73	1081.80
389.10	1087.18
389.46	1082.97
389.83	1072.43
390.20	1061.90
390.57	1060.50
390.94	1061.90
391.31	1060.50
391.68	1058.62
392.05	1066.58
392.42	1063.07
392.79	1050.43
393.16	1060.03
393.53	1064.01
393.89	1059.09
394.26	1065.18
394.63	1070.80
395.00	1074.31
395.37	1084.60
395.74	1085.54
396.11	1081.09
396.48	1085.54
396.84	1072.67
397.21	1054.88
397.58	1063.31
397.95	1065.88
398.32	1069.86
398.69	1066.58
399.06	1062.37
399.42	1047.62
399.79	1045.99
400.16	1037.79
400.53	1048.56
400.90	1062.84
401.27	1071.97
401.64	1064.24
402.00	1071.03
402.37	1067.52
402.74	1053.94
403.11	1046.69
403.48	1058.62
403.84	1060.03
404.21	1057.45
404.58	1069.86
404.95	1074.77
405.32	1068.22
405.68	1074.07
406.05	1086.94
406.42	1080.16
406.79	1081.09
407.16	1087.88
407.52	1078.75
407.89	1076.88
408.26	1079.69
408.63	1076.41
408.99	1079.69
409.36	1081.09
409.73	1076.41
410.10	1089.75
410.47	1101.22
410.83	1089.29
411.20	1083.67
411.57	1081.56
411.94	1077.82
412.30	1071.03
412.67	1082.97
413.04	1084.60
413.40	1084.84
413.77	1080.16
414.14	1076.18
414.51	1060.96
414.87	1052.30
415.24	1052.30
415.61	1057.22
415.97	1060.26
416.34	1074.07
416.71	1085.31
417.08	1084.14
417.44	1075.24
417.81	1082.03
418.18	1074.07
418.54	1071.73
418.91	1080.63
419.28	1087.41
419.64	1083.90
420.01	1088.12
420.38	1085.77
420.74	1086.48
421.11	1090.92
421.48	1092.09
421.84	1087.41
422.21	1089.52
422.58	1095.84
422.94	1097.24
423.31	1090.92
423.68	1102.16
424.04	1105.67
424.41	1096.78
424.77	1091.39
425.14	1099.35
425.51	1100.29
425.87	1108.71
426.24	1119.71
426.61	1115.50
426.97	1112.46
427.34	1113.86
427.70	1111.29
428.07	1104.26
428.44	1119.24
428.80	1139.14
429.17	1141.25
429.53	1143.35
429.90	1150.37
430.27	1151.08
430.63	1142.88
431.00	1146.63
431.36	1157.16
431.73	1153.42
432.09	1155.52
432.46	1155.05
432.83	1153.65
433.19	1154.82
433.56	1162.78
433.92	1159.27
434.29	1168.86
434.65	1176.59
435.02	1172.37
435.38	1164.88
435.75	1174.01
436.11	1179.86
436.48	1187.12
436.84	1193.67
437.21	1210.06
437.57	1208.89
437.94	1197.65
438.30	1193.21
438.67	1191.33
439.03	1190.40
439.40	1178.23
439.76	1181.97
440.13	1187.12
440.49	1190.63
440.86	1190.63
441.22	1202.57
441.59	1199.52
441.95	1188.52
442.32	1185.25
442.68	1173.78
443.05	1175.89
443.41	1177.29
443.78	1182.91
444.14	1176.59
444.51	1184.78
444.87	1190.63
445.24	1186.89
445.60	1178.23
445.96	1181.74
446.33	1186.42
446.69	1167.93
447.06	1166.29
447.42	1170.74
447.79	1167.23
448.15	1148.97
448.51	1148.97
448.88	1154.59
449.24	1151.31
449.61	1145.22
449.97	1149.91
450.33	1149.91
450.70	1145.46
451.06	1136.10
451.43	1144.52
451.79	1152.95
452.15	1161.37
452.52	1152.48
452.88	1161.14
453.24	1149.67
453.61	1137.73
453.97	1127.67
454.34	1131.18
454.70	1127.90
455.06	1134.69
455.43	1130.01
455.79	1134.93
456.15	1141.01
456.52	1143.82
456.88	1144.76
457.24	1144.52
457.61	1147.56
457.97	1144.76
458.33	1131.18
458.70	1117.37
459.06	1118.07
459.42	1101.92
459.79	1096.54
460.15	1097.71
460.51	1095.14
460.88	1092.09
461.24	1091.16
461.60	1085.54
461.96	1093.03
462.33	1096.31
462.69	1101.22
463.05	1103.56
463.42	1096.54
463.78	1093.26
464.14	1098.65
464.50	1086.94
464.87	1081.80
465.23	1089.29
465.59	1083.90
465.95	1083.67
466.32	1090.46
466.68	1105.44
467.04	1110.35
467.40	1106.84
467.77	1100.99
468.13	1107.07
468.49	1093.73
468.85	1080.16
469.22	1087.88
469.58	1088.12
469.94	1080.39
470.30	1084.14
470.66	1092.33
471.03	1086.24
471.39	1094.43
471.75	1100.99
472.11	1100.52
472.47	1099.35
472.84	1099.35
473.20	1086.48
473.56	1073.60
473.92	1069.39
474.28	1072.20
474.65	1071.97
475.01	1078.05
475.37	1073.60
475.73	1086.48
476.09	1087.18
476.45	1087.88
476.81	1098.41
477.18	1104.26
477.54	1091.39
477.90	1090.46
478.26	1087.18
478.62	1078.52
478.98	1087.88
479.34	1086.94
479.71	1093.73
480.07	1096.31
480.43	1095.14
480.79	1094.90
481.15	1099.82
481.51	1097.01
481.87	1088.12
482.23	1083.20
482.59	1077.82
482.96	1073.84
483.32	1067.52
483.68	1077.82
484.04	1079.69
484.40	1077.11
484.76	1069.86
485.12	1073.84
485.48	1073.37
485.84	1078.99
486.20	1088.82
486.56	1095.60
486.92	1091.39
487.28	1083.20
487.64	1084.84
488.00	1078.05
488.37	1086.48
488.73	1087.18
489.09	1093.26
489.45	1089.29
489.81	1093.26
490.17	1087.18
490.53	1088.12
490.89	1091.86
491.25	1096.78
491.61	1088.35
491.97	1091.63
492.33	1091.63
492.69	1091.16
493.05	1089.75
493.41	1099.35
493.77	1088.35
494.13	1087.88
494.49	1089.99
494.85	1078.05
495.21	1071.50
495.57	1072.67
495.93	1071.50
496.29	1067.05
496.64	1075.71
497.00	1067.52
497.36	1082.03
497.72	1077.58
498.08	1082.50
498.44	1075.01
498.80	1086.01
499.16	1080.63
499.52	1086.01
499.88	1071.97
500.24	1077.58
500.60	1072.43
500.96	1069.39
501.32	1066.35
501.68	1079.69
502.03	1082.26
502.39	1081.09
502.75	1085.31
503.11	1085.07
503.47	1088.82
503.83	1089.52
504.19	1083.90
504.55	1078.75
504.91	1077.58
505.26	1066.11
505.62	1054.65
505.98	1066.82
506.34	1064.24
506.70	1070.09
507.06	1078.28
507.42	1091.86
507.78	1090.92
508.13	1096.07
508.49	1095.14
508.85	1095.84
509.21	1084.60
509.57	1076.88
509.93	1080.86
510.28	1068.92
510.64	1064.71
511.00	1067.28
511.36	1077.82
511.72	1078.28
512.07	1089.29
512.43	1093.97
512.79	1111.29
513.15	1096.78
513.51	1083.20
513.86	1084.37
514.22	1081.09
514.58	1062.60
514.94	1075.24
515.30	1084.14
515.65	1081.33
516.01	1077.58
516.37	1082.03
516.73	1079.46
517.08	1077.35
517.44	1082.73
517.80	1083.90
518.16	1082.26
518.51	1090.92
518.87	1080.39
519.23	1080.63
519.59	1080.86
519.94	1077.58
520.30	1069.39
520.66	1078.75
521.01	1069.62
521.37	1076.18
521.73	1078.75
522.09	1078.28
522.44	1081.33
522.80	1088.82
523.16	1075.71
523.51	1077.35
523.87	1081.33
524.23	1077.82
524.58	1078.75
524.94	1088.12
525.30	1081.56
525.65	1072.90
526.01	1063.77
526.37	1056.99
526.72	1056.05
527.08	1063.07
527.44	1068.92
527.79	1076.18
528.15	1071.50
528.51	1067.75
528.86	1066.35
529.22	1064.71
529.58	1062.60
529.93	1075.48
530.29	1078.75
530.65	1079.46
531.00	1072.67
531.36	1080.63
531.71	1079.69
532.07	1082.26
532.43	1076.18
532.78	1085.77
533.14	1081.80
533.49	1077.11
533.85	1080.39
534.21	1079.22
534.56	1077.58
534.92	1079.92
535.27	1078.05
535.63	1077.35
535.98	1091.63
536.34	1088.12
536.69	1084.60
537.05	1081.09
537.41	1071.26
537.76	1056.28
538.12	1059.79
538.47	1064.24
538.83	1070.56
539.18	1084.14
539.54	1091.86
539.89	1089.75
540.25	1075.94
540.60	1068.22
540.96	1058.62
541.31	1054.41
541.67	1056.52
542.02	1067.99
542.38	1062.14
542.73	1062.60
543.09	1071.50
543.44	1080.86
543.80	1078.52
544.15	1082.97
544.51	1093.50
544.86	1086.01
545.22	1070.09
545.57	1079.22
545.93	1091.39
546.28	1079.92
546.64	1081.56
546.99	1097.48
547.35	1086.71
547.70	1088.12
548.05	1092.80
548.41	1104.26
548.76	1089.75
549.12	1096.07
549.47	1088.58
549.83	1088.58
550.18	1084.84
550.53	1093.03
550.89	1089.52
551.24	1089.52
551.60	1077.58
551.95	1076.88
552.30	1079.22
552.66	1076.88
553.01	1076.65
553.37	1089.99
553.72	1087.88
554.07	1084.60
554.43	1083.90
554.78	1088.12
555.13	1082.26
555.49	1075.94
555.84	1066.35
556.19	1077.58
556.55	1071.50
556.90	1071.73
557.26	1066.35
557.61	1080.63
557.96	1079.92
558.32	1088.12
558.67	1080.16
559.02	1081.80
559.37	1074.07
559.73	1069.39
560.08	1066.82
560.43	1074.07
560.79	1074.07
561.14	1074.77
561.49	1071.50
561.85	1071.73
562.20	1071.03
562.55	1071.97
562.90	1075.71
563.26	1087.41
563.61	1085.31
563.96	1090.69
564.32	1094.43
564.67	1090.92
565.02	1077.35
565.37	1080.39
565.73	1069.86
566.08	1072.67
566.43	1075.01
566.78	1080.86
567.14	1064.94
567.49	1071.97
567.84	1074.77
568.19	1070.80
568.54	1070.56
568.90	1087.18
569.25	1085.77
569.60	1075.94
569.95	1077.35
570.31	1077.82
570.66	1074.31
571.01	1070.33
571.36	1074.31
571.71	1073.84
572.06	1074.07
572.42	1071.73
572.77	1076.41
573.12	1077.11
573.47	1078.28
573.82	1071.97
574.18	1066.58
574.53	1070.80
574.88	1081.56
575.23	1084.14
575.58	1088.12
575.93	1100.75
576.28	1093.97
576.64	1091.63
576.99	1099.58
577.34	1096.78
577.69	1085.07
578.04	1084.37
578.39	1080.39
578.74	1064.48
579.09	1066.35
579.44	1083.67
579.80	1084.37
580.15	1078.28
580.50	1090.69
580.85	1091.16
581.20	1082.73
581.55	1085.54
581.90	1091.86
582.25	1075.71
582.60	1071.73
582.95	1068.45
583.30	1066.11
583.65	1072.43
584.00	1080.39
584.35	1087.65
584.71	1095.14
585.06	1104.26
585.41	1096.31
585.76	1101.92
586.11	1097.95
586.46	1090.92
586.81	1076.88
587.16	1061.43
587.51	1051.84
587.86	1057.92
588.21	1056.99
588.56	1063.77
588.91	1082.73
589.26	1084.60
589.61	1074.31
589.96	1080.39
590.31	1076.88
590.66	1072.43
591.01	1073.60
591.36	1075.01
591.71	1066.82
592.06	1068.22
592.41	1068.45
592.76	1068.69
593.10	1079.92
593.45	1087.88
593.80	1095.37
594.15	1092.80
594.50	1098.88
594.85	1102.16
595.20	1100.75
595.55	1091.39
595.90	1087.88
596.25	1092.56
596.60	1087.18
596.95	1082.73
597.30	1100.99
597.64	1153.88
597.99	1152.71
598.34	1146.39
598.69	1143.12
599.04	1125.10
599.39	1074.31
599.74	1059.09
600.09	1061.43
600.44	1068.45
600.78	1080.86
601.13	1077.11
601.48	1090.46
601.83	1087.88
602.18	1094.20
602.53	1086.94
602.88	1094.43
603.22	1084.14
603.57	1089.75
603.92	1081.56
604.27	1077.35
604.62	1085.07
604.97	1095.14
605.31	1099.12
605.66	1099.58
606.01	1100.29
606.36	1080.63
606.71	1070.80
607.05	1055.58
607.40	1057.22
607.75	1071.50
608.10	1080.16
608.44	1087.65
608.79	1093.26
609.14	1088.82
609.49	1074.07
609.84	1069.39
610.18	1066.58
610.53	1075.71
610.88	1087.41
611.23	1094.67
611.57	1101.22
611.92	1105.20
612.27	1109.18
612.62	1092.80
612.96	1089.99
613.31	1089.75
613.66	1080.16
614.00	1067.75
614.35	1084.84
614.70	1079.46
615.05	1074.77
615.39	1076.65
615.74	1086.94
616.09	1076.88
616.43	1086.48
616.78	1095.84
617.13	1096.78
617.47	1094.67
617.82	1092.33
618.17	1090.69
618.51	1096.07
618.86	1090.22
619.21	1089.75
619.55	1094.43
619.90	1089.99
620.25	1073.84
620.59	1079.92
620.94	1064.48
621.29	1057.92
621.63	1052.54
621.98	1060.03
622.32	1058.39
622.67	1062.84
623.02	1075.01
623.36	1087.18
623.71	1085.07
624.05	1088.82
624.40	1092.33
624.75	1089.29
625.09	1075.01
625.44	1076.41
625.78	1072.20
626.13	1066.82
626.48	1053.24
626.82	1068.22
627.17	1058.86
627.51	1062.37
627.86	1064.24
628.20	1071.26
628.55	1075.71
628.89	1087.65
629.24	1089.05
629.58	1084.37
629.93	1088.82
630.28	1076.18
630.62	1065.65
630.97	1066.82
631.31	1076.18
631.66	1078.52
632.00	1073.14
632.35	1087.18
632.69	1082.97
633.04	1091.39
633.38	1088.82
633.73	1092.56
634.07	1085.54
634.42	1084.60
634.76	1079.46
635.11	1073.84
635.45	1078.75
635.79	1077.82
636.14	1083.20
636.48	1076.18
636.83	1073.84
637.17	1077.58
637.52	1077.35
637.86	1077.58
638.21	1081.33
638.55	1086.01
638.89	1074.07
639.24	1075.94
639.58	1077.58
639.93	1070.09
640.27	1070.80
640.61	1077.11
640.96	1078.75
641.30	1067.05
641.65	1077.58
641.99	1072.67
642.33	1071.50
642.68	1075.48
643.02	1078.28
643.37	1075.71
643.71	1082.73
644.05	1086.48
644.40	1078.52
644.74	1080.63
645.08	1069.16
645.43	1067.52
645.77	1067.05
646.11	1078.52
646.46	1081.09
646.80	1089.05
647.14	1086.94
647.49	1086.24
647.83	1071.73
648.17	1077.82
648.52	1078.28
648.86	1080.86
649.20	1073.37
649.55	1077.35
649.89	1067.28
650.23	1073.84
650.57	1069.62
650.92	1078.52
651.26	1074.31
651.60	1070.80
651.95	1062.37
652.29	1066.58
652.63	1055.11
652.97	1055.35
653.32	1069.86
653.66	1075.01
654.00	1072.90
654.34	1082.03
654.69	1082.50
655.03	1076.18
655.37	1070.09
655.71	1066.82
656.05	1075.01
656.40	1069.16
656.74	1064.94
657.08	1071.26
657.42	1079.69
657.76	1082.97
658.11	1092.33
658.45	1091.63
658.79	1092.56
659.13	1089.52
659.47	1077.35
659.82	1078.28
660.16	1075.94
660.50	1072.20
660.84	1069.16
661.18	1068.22
661.52	1068.92
661.87	1070.33
662.21	1073.60
662.55	1073.37
662.89	1076.41
663.23	1076.88
663.57	1079.92
663.91	1082.73
664.25	1090.69
664.60	1095.84
664.94	1102.39
665.28	1105.44
665.62	1094.67
665.96	1090.46
666.30	1093.73
666.64	1088.58
666.98	1082.50
667.32	1087.41
667.66	1081.09
668.01	1071.97
668.35	1067.28
668.69	1084.60
669.03	1082.97
669.37	1090.92
669.71	1093.97
670.05	1098.65
670.39	1085.54
670.73	1096.07
671.07	1096.31
671.41	1091.63
671.75	1097.71
672.09	1109.18
672.43	1104.73
672.77	1095.84
673.11	1091.39
673.45	1080.86
673.79	1071.50
674.13	1071.03
674.47	1077.82
674.81	1080.63
675.15	1085.54
675.49	1080.86
675.83	1075.24
676.17	1077.35
676.51	1076.41
676.85	1080.63
677.19	1084.37
677.53	1093.73
677.87	1093.26
678.21	1100.75
678.55	1091.39
678.89	1094.67
679.23	1084.84
679.57	1082.03
679.90	1081.09
680.24	1080.16
680.58	1074.31
680.92	1085.77
681.26	1093.97
681.60	1086.94
681.94	1090.92
682.28	1089.29
682.62	1082.03
682.96	1072.20
683.29	1078.05
683.63	1082.03
683.97	1091.39
684.31	1091.16
684.65	1095.14
684.99	1093.03
685.33	1092.80
685.67	1093.73
686.00	1086.24
686.34	1076.88
686.68	1076.65
687.02	1077.58
687.36	1071.26
687.70	1084.14
688.03	1088.12
688.37	1092.80
688.71	1093.26
689.05	1099.58
689.39	1101.46
689.72	1100.05
690.06	1100.99
690.40	1091.16
690.74	1082.03
691.08	1069.39
691.41	1076.41
691.75	1065.88
692.09	1069.62
692.43	1070.80
692.76	1073.14
693.10	1075.71
693.44	1080.86
693.78	1087.65
694.11	1092.09
694.45	1092.09
694.79	1084.60
695.13	1084.84
695.46	1077.35
695.80	1073.14
696.14	1066.82
696.48	1064.01
696.81	1066.35
697.15	1072.20
697.49	1081.33
697.82	1095.14
698.16	1096.78
698.50	1098.18
698.83	1092.80
699.17	1084.14
699.51	1077.82
699.84	1080.16
700.18	1074.77
700.52	1071.26
700.85	1066.58
701.19	1062.37
701.53	1059.79
701.86	1068.92
702.20	1076.18
702.54	1073.14
702.87	1082.26
703.21	1080.16
703.55	1071.50
703.88	1064.48
704.22	1075.48
704.55	1080.16
704.89	1085.07
705.23	1087.65
705.56	1097.95
705.90	1095.14
706.23	1089.99
706.57	1075.24
706.91	1067.28
707.24	1067.52
707.58	1067.28
707.91	1065.41
708.25	1078.75
708.58	1078.99
708.92	1074.54
709.26	1071.50
709.59	1073.60
709.93	1089.75
710.26	1086.48
710.60	1082.50
710.93	1089.52
711.27	1086.71
711.60	1074.54
711.94	1082.50
712.27	1088.82
712.61	1086.24
712.94	1090.92
713.28	1084.14
713.61	1089.75
713.95	1085.77
714.28	1080.63
714.62	1071.03
714.95	1071.50
715.29	1063.54
715.62	1065.65
715.96	1071.26
716.29	1076.65
716.63	1081.33
716.96	1085.54
717.29	1084.37
717.63	1089.75
717.96	1086.24
718.30	1083.43
718.63	1081.56
718.97	1071.50
719.30	1064.24
719.63	1070.33
719.97	1072.90
720.30	1077.58
720.64	1087.88
720.97	1090.92
721.30	1081.33
721.64	1078.75
721.97	1074.54
722.31	1069.39
722.64	1064.71
722.97	1069.39
723.31	1066.35
723.64	1073.14
723.97	1071.03
724.31	1072.67
724.64	1067.28
724.98	1075.24
725.31	1057.92
725.64	1057.45
725.98	1050.43
726.31	1056.52
726.64	1056.05
726.97	1069.62
727.31	1075.24
727.64	1078.05
727.97	1080.16
728.31	1076.65
728.64	1070.09
728.97	1069.86
729.31	1070.56
729.64	1076.88
729.97	1079.69
730.30	1088.82
730.64	1092.33
730.97	1092.56
731.30	1079.22
731.63	1074.07
731.97	1060.26
732.30	1056.05
732.63	1060.96
732.96	1069.16
733.30	1070.56
733.63	1080.39
733.96	1089.52
734.29	1088.35
734.63	1092.33
734.96	1086.48
735.29	1084.60
735.62	1077.58
735.95	1077.11
736.29	1071.73
736.62	1079.22
736.95	1083.67
737.28	1089.99
737.61	1086.94
737.94	1081.09
738.28	1088.12
738.61	1080.86
738.94	1072.20
739.27	1083.20
739.60	1087.18
739.93	1077.82
740.27	1087.18
740.60	1078.52
740.93	1070.56
741.26	1072.90
741.59	1077.11
741.92	1073.60
742.25	1083.20
742.58	1079.92
742.91	1071.73
743.25	1072.90
743.58	1077.82
743.91	1086.24
744.24	1085.54
744.57	1090.69
744.90	1091.86
745.23	1083.90
745.56	1077.11
745.89	1078.28
746.22	1078.52
746.55	1075.24
746.88	1086.01
747.21	1086.24
747.54	1089.52
747.87	1090.69
748.20	1084.60
748.53	1068.92
748.87	1058.62
749.20	1061.20
749.53	1063.31
749.86	1066.58
750.19	1073.37
750.52	1085.31
750.85	1082.50
751.18	1084.14
751.51	1084.14
751.84	1085.07
752.16	1082.26
752.49	1085.77
752.82	1084.84
753.15	1092.80
753.48	1092.80
753.81	1095.37
754.14	1088.82
754.47	1082.73
754.80	1073.60
755.13	1072.90
755.46	1076.18
755.79	1076.65
756.12	1086.94
756.45	1093.50
756.78	1097.71
757.11	1093.97
757.43	1095.37
757.76	1083.90
758.09	1089.75
758.42	1088.35
758.75	1081.80
759.08	1075.01
759.41	1074.54
759.74	1067.99
760.07	1060.73
760.39	1056.05
760.72	1058.39
761.05	1063.07
761.38	1064.94
761.71	1064.24
762.04	1071.50
762.36	1074.07
762.69	1076.18
763.02	1074.77
763.35	1077.82
763.68	1076.65
764.01	1080.39
764.33	1078.52
764.66	1084.14
764.99	1085.77
765.32	1089.75
765.65	1082.97
765.97	1075.94
766.30	1063.31
766.63	1056.99
766.96	1054.88
767.28	1053.48
767.61	1060.50
767.94	1060.03
768.27	1067.28
768.59	1073.37
768.92	1084.60
769.25	1080.63
769.58	1083.20
769.90	1079.22
770.23	1075.94
770.56	1075.94
770.89	1079.92
771.21	1083.20
771.54	1092.09
771.87	1090.69
772.19	1087.41
772.52	1081.09
772.85	1077.35
773.17	1066.11
773.50	1064.94
773.83	1067.28
774.15	1078.52
774.48	1082.73
774.81	1090.22
775.13	1083.90
775.46	1083.20
775.79	1077.35
776.11	1065.41
776.44	1053.48
776.77	1060.73
777.09	1050.67
777.42	1050.90
777.74	1058.86
778.07	1066.35
778.40	1069.16
778.72	1079.22
779.05	1075.94
779.37	1071.97
779.70	1070.56
780.03	1067.99
780.35	1058.16
780.68	1062.60
781.00	1066.35
781.33	1068.92
781.65	1056.75
781.98	1066.11
782.31	1061.20
782.63	1062.60
782.96	1063.07
783.28	1079.46
783.61	1078.99
783.93	1076.65
784.26	1077.58
784.58	1078.05
784.91	1079.46
785.23	1076.41
785.56	1072.20
785.88	1068.92
786.21	1067.28
786.53	1056.99
786.86	1060.03
787.18	1072.90
787.51	1078.99
787.83	1080.63
788.16	1083.20
788.48	1081.33
788.81	1073.14
789.13	1070.56
789.46	1077.35
789.78	1080.86
790.10	1081.56
790.43	1091.86
790.75	1096.31
791.08	1091.86
791.40	1085.07
791.73	1092.56
792.05	1082.26
792.37	1079.92
792.70	1086.48
793.02	1087.41
793.35	1076.65
793.67	1083.90
793.99	1076.65
794.32	1072.43
794.64	1076.88
794.96	1078.75
795.29	1078.05
795.61	1088.35
795.93	1083.90
796.26	1090.92
796.58	1089.75
796.91	1092.33
797.23	1080.39
797.55	1076.65
797.87	1073.14
798.20	1082.73
798.52	1071.26
798.84	1078.99
799.17	1083.67
799.49	1073.60
799.81	1058.39
800.14	1068.22
800.46	1074.31
800.78	1064.24
801.10	1069.86
801.43	1070.09
801.75	1061.20
802.07	1043.64
802.40	1054.41
802.72	1056.75
803.04	1058.86
803.36	1064.48
803.69	1071.26
804.01	1061.43
804.33	1060.73
804.65	1065.18
804.97	1066.11
805.30	1070.56
805.62	1078.99
805.94	1080.16
806.26	1076.41
806.58	1077.11
806.91	1074.77
807.23	1078.28
807.55	1081.09
807.87	1084.60
808.19	1092.33
808.52	1095.60
808.84	1092.33
809.16	1091.16
809.48	1094.43
809.80	1089.75
810.12	1090.92
810.44	1093.73
810.77	1079.92
811.09	1073.37
811.41	1066.11
811.73	1068.92
812.05	1050.43
812.37	1060.50
812.69	1059.33
813.01	1067.28
813.33	1054.18
813.66	1075.48
813.98	1078.28
814.30	1080.63
814.62	1071.97
814.94	1080.39
815.26	1063.07
815.58	1061.43
815.90	1069.62
816.22	1075.48
816.54	1082.03
816.86	1090.69
817.18	1082.03
817.50	1072.20
817.82	1068.45
818.14	1057.45
818.46	1049.03
818.78	1061.43
819.10	1068.92
819.42	1076.65
819.74	1079.22
820.06	1085.31
820.38	1090.69
820.70	1093.03
821.02	1095.14
821.34	1096.54
821.66	1098.41
821.98	1088.58
822.30	1087.88
822.62	1078.75
822.94	1072.20
823.26	1060.26
823.58	1057.45
823.90	1051.37
824.22	1057.45
824.54	1057.92
824.86	1068.45
825.18	1067.05
825.50	1071.03
825.81	1065.18
826.13	1060.73
826.45	1062.37
826.77	1067.75
827.09	1064.94
827.41	1074.77
827.73	1097.24
828.05	1095.60
828.36	1091.39
828.68	1099.82
829.00	1088.82
829.32	1075.94
829.64	1078.99
829.96	1079.46
830.28	1069.16
830.59	1070.56
830.91	1075.94
831.23	1079.69
831.55	1077.82
831.87	1090.92
832.19	1093.50
832.50	1089.05
832.82	1084.37
833.14	1092.33
833.46	1082.03
833.78	1082.26
834.09	1076.88
834.41	1077.35
834.73	1075.24
835.05	1073.37
835.36	1076.18
835.68	1082.26
836.00	1082.97
836.32	1083.43
836.63	1080.63
836.95	1077.11
837.27	1074.54
837.59	1075.94
837.90	1072.20
838.22	1077.58
838.54	1076.65
838.85	1084.14
839.17	1087.65
839.49	1088.82
839.80	1100.75
840.12	1094.20
840.44	1089.52
840.76	1078.28
841.07	1079.46
841.39	1055.58
841.71	1066.11
842.02	1065.41
842.34	1076.88
842.65	1078.75
842.97	1091.63
843.29	1090.46
843.60	1100.52
843.92	1094.90
844.24	1095.60
844.55	1103.80
844.87	1100.99
845.18	1084.14
845.50	1091.39
845.82	1091.16
846.13	1077.11
846.45	1078.05
846.76	1076.65
847.08	1071.26
847.40	1068.92
847.71	1069.39
848.03	1070.09
848.34	1075.71
848.66	1074.77
848.97	1072.67
849.29	1078.75
849.60	1075.94
849.92	1076.41
850.24	1073.14
850.55	1071.73
850.87	1072.43
851.18	1077.58
851.50	1068.22
851.81	1077.35
852.13	1081.33
852.44	1075.24
852.76	1067.05
853.07	1077.35
853.39	1072.67
853.70	1071.50
854.01	1078.05
854.33	1088.12
854.64	1087.88
854.96	1082.73
855.27	1078.05
855.59	1071.03
855.90	1063.07
856.22	1056.99
856.53	1062.37
856.84	1063.07
857.16	1067.05
857.47	1070.09
857.79	1078.99
858.10	1077.58
858.41	1081.56
858.73	1074.54
859.04	1076.88
859.36	1080.39
859.67	1082.26
859.98	1091.63
860.30	1101.22
860.61	1100.05
860.92	1092.33
861.24	1093.97
861.55	1078.05
861.87	1076.65
862.18	1085.77
862.49	1082.03
862.81	1088.12
863.12	1093.03
863.43	1088.82
863.74	1085.77
864.06	1093.03
864.37	1085.54
864.68	1083.90
865.00	1091.86
865.31	1088.35
865.62	1081.80
865.94	1086.01
866.25	1090.46
866.56	1087.65
866.87	1087.88
867.19	1097.24
867.50	1086.48
867.81	1085.07
868.12	1078.52
868.44	1075.94
868.75	1071.03
869.06	1071.26
869.37	1071.73
869.68	1077.35
870.00	1086.48
870.31	1086.24
870.62	1086.48
870.93	1083.67
871.24	1085.54
871.56	1072.67
871.87	1085.07
872.18	1091.63
872.49	1084.84
872.80	1079.69
873.12	1085.31
873.43	1080.86
873.74	1078.28
874.05	1091.86
874.36	1094.90
874.67	1093.73
874.98	1089.99
875.29	1093.26
875.61	1085.31
875.92	1082.97
876.23	1084.14
876.54	1081.33
876.85	1066.35
877.16	1067.28
877.47	1069.16
877.78	1067.05
878.09	1069.86
878.40	1081.56
878.72	1080.86
879.03	1079.46
879.34	1076.65
879.65	1070.33
879.96	1067.28
880.27	1075.71
880.58	1074.31
880.89	1077.82
881.20	1079.69
881.51	1078.28
881.82	1070.56
882.13	1075.01
882.44	1065.88
882.75	1062.60
883.06	1073.84
883.37	1076.88
883.68	1068.92
883.99	1072.43
884.30	1074.54
884.61	1068.92
884.92	1066.11
885.23	1070.33
885.54	1080.39
885.85	1082.26
886.16	1078.52
886.47	1079.46
886.78	1081.33
887.08	1068.69
887.39	1066.35
887.70	1071.50
888.01	1067.05
888.32	1069.62
888.63	1072.90
888.94	1082.26
889.25	1076.41
889.56	1081.56
889.87	1070.09
890.17	1069.62
890.48	1063.54
890.79	1064.48
891.10	1066.35
891.41	1077.58
891.72	1080.39
892.03	1080.16
892.34	1082.73
892.64	1072.43
892.95	1062.60
893.26	1067.52
893.57	1065.18
893.88	1064.24
894.18	1076.65
894.49	1089.99
894.80	1078.52
895.11	1082.97
895.42	1078.75
895.72	1074.31
896.03	1078.52
896.34	1086.94
896.65	1083.43
896.96	1093.50
897.26	1097.24
897.57	1083.20
897.88	1076.88
898.19	1080.63
898.49	1069.86
898.80	1058.16
899.11	1065.41
899.41	1076.65
899.72	1085.31
900.03	1086.01
900.34	1090.46
900.64	1087.41
900.95	1087.88
901.26	1080.16
901.56	1082.26
901.87	1084.84
902.18	1082.03
902.48	1074.31
902.79	1066.82
903.10	1068.69
903.40	1063.77
903.71	1056.99
904.02	1060.03
904.32	1067.05
904.63	1054.88
904.94	1058.39
905.24	1065.65
905.55	1063.77
905.85	1054.88
906.16	1058.39
906.47	1059.79
906.77	1059.09
907.08	1061.90
907.38	1061.43
907.69	1073.14
908.00	1070.33
908.30	1077.35
908.61	1078.52
908.91	1083.20
909.22	1078.75
909.52	1079.69
909.83	1071.97
910.14	1066.35
910.44	1061.90
910.75	1065.18
911.05	1065.18
911.36	1066.82
911.66	1076.88
911.97	1083.43
912.27	1078.99
912.58	1087.88
912.88	1095.14
913.19	1086.71
913.49	1085.31
913.80	1090.69
914.10	1086.48
914.41	1086.01
914.71	1093.73
915.01	1089.75
915.32	1092.33
915.62	1090.22
915.93	1080.86
916.23	1064.01
916.54	1065.18
916.84	1054.18
917.15	1053.94
917.45	1058.39
917.75	1062.14
918.06	1068.92
918.36	1071.97
918.67	1071.03
918.97	1074.07
919.27	1081.33
919.58	1077.58
919.88	1086.71
920.18	1093.73
920.49	1088.58
920.79	1091.86
921.10	1091.86
921.40	1083.90
921.70	1079.92
922.01	1071.73
922.31	1060.26
922.61	1059.33
922.92	1057.69
923.22	1054.88
923.52	1056.28
923.82	1060.73
924.13	1058.39
924.43	1065.88
924.73	1057.92
925.04	1069.39
925.34	1066.82
925.64	1069.62
925.94	1064.94
926.25	1074.07
926.55	1072.67
926.85	1081.09
927.15	1077.11
927.46	1077.11
927.76	1083.67
928.06	1074.07
928.36	1067.05
928.67	1070.33
928.97	1069.16
929.27	1062.14
929.57	1075.01
929.87	1079.46
930.18	1079.46
930.48	1077.35
930.78	1079.46
931.08	1073.60
931.38	1069.86
931.69	1070.80
931.99	1077.11
932.29	1079.92
932.59	1076.65
932.89	1077.11
933.19	1074.54
933.49	1065.18
933.80	1060.73
934.10	1070.09
934.40	1068.22
934.70	1063.31
935.00	1070.80
935.30	1072.43
935.60	1064.71
935.90	1081.33
936.20	1086.01
936.50	1080.86
936.81	1074.54
937.11	1072.20
937.41	1058.62
937.71	1072.43
938.01	1072.20
938.31	1074.77
938.61	1079.69
938.91	1073.60
939.21	1054.88
939.51	1055.82
939.81	1057.22
940.11	1063.77
940.41	1062.84
940.71	1069.16
941.01	1070.09
941.31	1071.26
941.61	1067.52
941.91	1077.11
942.21	1080.16
942.51	1079.46
942.81	1076.18
943.11	1068.22
943.41	1060.50
943.71	1057.92
944.01	1053.48
944.31	1059.33
944.61	1064.01
944.90	1068.45
945.20	1073.60
945.50	1083.20
945.80	1077.11
946.10	1081.56
946.40	1085.77
946.70	1085.54
947.00	1090.22
947.30	1092.33
947.60	1086.24
947.89	1088.82
948.19	1092.80
948.49	1082.97
948.79	1093.97
949.09	1097.71
949.39	1092.09
949.69	1083.20
949.98	1087.41
950.28	1074.31
950.58	1078.28
950.88	1075.94
951.18	1074.54
951.48	1077.11
951.77	1072.67
952.07	1064.24
952.37	1075.01
952.67	1073.14
952.97	1058.62
953.26	1063.54
953.56	1068.69
953.86	1064.94
954.16	1065.18
954.45	1072.67
954.75	1072.43
955.05	1075.01
955.35	1064.71
955.64	1069.62
955.94	1068.45
956.24	1075.48
956.54	1068.45
956.83	1074.54
957.13	1079.46
957.43	1082.26
957.72	1073.84
958.02	1074.54
958.32	1081.80
958.61	1077.35
958.91	1078.05
959.21	1093.97
959.50	1101.92
959.80	1093.97
960.10	1092.80
960.39	1096.78
960.69	1079.69
960.99	1067.52
961.28	1056.99
961.58	1056.05
961.87	1055.58
962.17	1056.75
962.47	1059.79
962.76	1066.82
963.06	1070.33
963.36	1072.20
963.65	1079.46
963.95	1077.58
964.24	1080.39
964.54	1083.67
964.83	1072.20
965.13	1064.48
965.42	1068.45
965.72	1064.71
966.02	1065.41
966.31	1071.73
966.61	1083.90
966.90	1089.75
967.20	1093.26
967.49	1084.84
967.79	1084.60
968.08	1080.16
968.38	1069.39
968.67	1069.62
968.97	1074.07
969.26	1075.01
969.56	1067.28
969.85	1068.69
970.15	1064.48
970.44	1064.01
970.74	1054.18
971.03	1054.88
971.32	1065.88
971.62	1060.50
971.91	1060.50
972.21	1067.52
972.50	1071.97
972.80	1061.43
973.09	1066.58
973.38	1062.84
973.68	1075.48
973.97	1083.67
974.27	1084.60
974.56	1090.22
974.85	1093.73
975.15	1084.84
975.44	1072.67
975.73	1069.39
976.03	1073.14
976.32	1069.16
976.61	1068.22
976.91	1079.46
977.20	1079.92
977.49	1074.31
977.79	1079.46
978.08	1084.37
978.37	1075.01
978.67	1078.99
978.96	1078.52
979.25	1065.88
979.55	1055.82
979.84	1055.82
980.13	1050.20
980.42	1051.37
980.72	1053.01
981.01	1069.16
981.30	1077.11
981.59	1083.20
981.89	1083.67
982.18	1089.29
982.47	1081.09
982.76	1075.94
983.06	1078.52
983.35	1091.39
983.64	1105.20
983.93	1105.67
984.22	1103.33
984.52	1100.05
984.81	1086.71
985.10	1077.82
985.39	1078.52
985.68	1079.22
985.97	1076.41
986.27	1073.14
986.56	1070.09
986.85	1064.48
987.14	1064.71
987.43	1064.01
987.72	1075.24
988.01	1086.71
988.31	1093.73
988.60	1089.75
988.89	1090.22
989.18	1078.28
989.47	1071.50
989.76	1064.01
990.05	1068.45
990.34	1067.52
990.63	1067.28
990.92	1065.41
991.21	1065.88
991.51	1073.60
991.80	1080.39
992.09	1087.65
992.38	1078.75
992.67	1078.99
992.96	1067.99
993.25	1069.62
993.54	1074.07
993.83	1075.24
994.12	1074.07
994.41	1073.14
994.70	1069.62
994.99	1064.94
995.28	1066.11
995.57	1070.80
995.86	1074.31
996.15	1084.84
996.44	1079.46
996.73	1086.48
997.02	1091.39
997.31	1096.31
997.59	1083.90
997.88	1096.07
998.17	1091.86
998.46	1087.88
998.75	1077.58
999.04	1076.65
999.33	1073.60
999.62	1079.69
999.91	1070.56
1000.20	1084.60
1000.49	1080.39
1000.77	1072.67
1001.06	1061.43
1001.35	1063.07
1001.64	1055.82
1001.93	1062.84
1002.22	1064.94
1002.51	1064.48
1002.79	1073.14
1003.08	1077.35
1003.37	1083.20
1003.66	1083.43
1003.95	1088.58
1004.23	1082.03
1004.52	1074.77
1004.81	1075.94
1005.10	1084.84
1005.39	1087.41
1005.67	1082.73
1005.96	1086.71
1006.25	1085.54
1006.54	1075.94
1006.83	1079.69
1007.11	1085.77
1007.40	1083.90
1007.69	1084.84
1007.97	1092.09
1008.26	1091.63
1008.55	1098.18
1008.84	1093.97
1009.12	1077.82
1009.41	1064.94
1009.70	1064.48
1009.98	1057.92
1010.27	1065.18
1010.56	1078.05
1010.85	1082.73
1011.13	1076.88
1011.42	1077.11
1011.71	1071.03
1011.99	1071.50
1012.28	1068.69
1012.56	1065.41
1012.85	1068.22
1013.14	1077.11
1013.42	1074.07
1013.71	1066.58
1014.00	1073.84
1014.28	1071.97
1014.57	1067.28
1014.85	1059.56
1015.14	1062.84
1015.43	1061.67
1015.71	1065.18
1016.00	1066.11
1016.28	1067.75
1016.57	1069.39
1016.85	1068.22
1017.14	1071.26
1017.43	1072.20
1017.71	1081.56
1018.00	1094.20
1018.28	1104.03
1018.57	1083.43
1018.85	1082.97
1019.14	1077.35
1019.42	1059.09
1019.71	1051.13
1019.99	1067.05
1020.28	1064.71
1020.56	1058.86
1020.85	1071.50
1021.13	1074.31
1021.42	1075.24
1021.70	1079.92
1021.99	1086.01
1022.27	1079.69
1022.55	1069.62
1022.84	1045.05
>>>>>End Processed Spectral Data<<<<<
