SpectraSuite Data File
++++++++++++++++++++++++++++++++++++
Date: Mon Aug 26 10:24:30 PDT 2019
User: corrico
Dark Spectrum Present: No
Reference Spectrum Present: No
Number of Sampled Component Spectra: 1
Spectrometers: USB2+H06089
Integration Time (usec): 10000 (USB2+H06089)
Spectra Averaged: 2 (USB2+H06089)
Boxcar Smoothing: 2 (USB2+H06089)
Correct for Electrical Dark: No (USB2+H06089)
Strobe/Lamp Enabled: No (USB2+H06089)
Correct for Detector Non-linearity: No (USB2+H06089)
Correct for Stray Light: No (USB2+H06089)
Number of Pixels in Processed Spectrum: 2048
>>>>>Begin Processed Spectral Data<<<<<
339.70	1047.39
340.07	1047.39
340.45	990.05
340.82	963.83
341.19	945.11
341.57	917.02
341.94	907.43
342.31	901.57
342.69	900.40
343.06	889.40
343.43	891.74
343.81	897.13
344.18	906.49
344.55	916.55
344.93	921.47
345.30	925.45
345.67	932.47
346.04	942.30
346.42	945.34
346.79	954.00
347.16	960.32
347.54	966.41
347.91	974.83
348.28	983.96
348.65	1000.34
349.03	1021.88
349.40	1025.86
349.77	1036.39
350.14	1039.20
350.52	1037.79
350.89	1028.90
351.26	1038.26
351.63	1036.62
352.01	1043.64
352.38	1052.30
352.75	1060.73
353.12	1067.99
353.50	1072.20
353.87	1076.18
354.24	1071.73
354.61	1064.71
354.98	1068.22
355.36	1069.16
355.73	1067.75
356.10	1062.84
356.47	1074.07
356.84	1075.24
357.22	1077.35
357.59	1077.82
357.96	1083.67
358.33	1073.37
358.70	1071.73
359.08	1077.11
359.45	1078.99
359.82	1080.39
360.19	1090.69
360.56	1088.12
360.94	1094.20
361.31	1093.50
361.68	1082.50
362.05	1081.56
362.42	1079.46
362.79	1071.03
363.16	1069.39
363.54	1081.09
363.91	1081.09
364.28	1080.63
364.65	1075.24
365.02	1078.05
365.39	1072.90
365.76	1064.94
366.14	1064.01
366.51	1069.86
366.88	1060.73
367.25	1059.79
367.62	1065.65
367.99	1071.26
368.36	1064.01
368.73	1059.33
369.10	1060.26
369.48	1054.65
369.85	1049.50
370.22	1048.79
370.59	1057.92
370.96	1064.71
371.33	1071.03
371.70	1058.86
372.07	1054.88
372.44	1046.45
372.81	1038.03
373.18	1036.16
373.55	1048.09
373.93	1055.82
374.30	1065.88
374.67	1063.54
375.04	1064.24
375.41	1071.26
375.78	1071.97
376.15	1067.05
376.52	1073.60
376.89	1076.88
377.26	1073.14
377.63	1072.90
378.00	1075.24
378.37	1075.48
378.74	1073.60
379.11	1071.26
379.48	1074.07
379.85	1070.56
380.22	1065.65
380.59	1058.62
380.96	1063.77
381.33	1068.45
381.70	1069.16
382.07	1078.28
382.44	1081.56
382.81	1082.03
383.18	1067.05
383.55	1073.37
383.92	1066.82
384.29	1077.11
384.66	1069.39
385.03	1077.35
385.40	1077.11
385.77	1081.56
386.14	1076.41
386.51	1086.01
386.88	1079.92
387.25	1070.56
387.62	1067.52
387.99	1064.94
388.36	1056.05
388.73	1063.31
389.10	1075.01
389.46	1083.43
389.83	1075.48
390.20	1079.22
390.57	1077.11
390.94	1077.35
391.31	1073.37
391.68	1081.33
392.05	1075.24
392.42	1078.99
392.79	1072.90
393.16	1075.71
393.53	1072.20
393.89	1075.24
394.26	1074.77
394.63	1070.56
395.00	1060.50
395.37	1064.48
395.74	1075.01
396.11	1073.14
396.48	1085.54
396.84	1089.99
397.21	1090.69
397.58	1088.58
397.95	1087.88
398.32	1086.24
398.69	1083.43
399.06	1085.31
399.42	1073.84
399.79	1064.01
400.16	1057.22
400.53	1069.86
400.90	1059.79
401.27	1062.60
401.64	1073.84
402.00	1078.75
402.37	1067.99
402.74	1084.37
403.11	1089.99
403.48	1084.84
403.84	1085.54
404.21	1089.52
404.58	1078.28
404.95	1083.20
405.32	1086.71
405.68	1089.99
406.05	1088.82
406.42	1081.09
406.79	1063.77
407.16	1058.16
407.52	1046.45
407.89	1048.09
408.26	1053.01
408.63	1065.18
408.99	1075.48
409.36	1077.11
409.73	1078.75
410.10	1082.97
410.47	1075.71
410.83	1068.22
411.20	1074.77
411.57	1073.37
411.94	1078.28
412.30	1085.31
412.67	1085.77
413.04	1080.39
413.40	1082.73
413.77	1084.14
414.14	1086.48
414.51	1091.39
414.87	1102.39
415.24	1103.09
415.61	1106.14
415.97	1113.16
416.34	1128.84
416.71	1132.59
417.08	1143.82
417.44	1136.33
417.81	1141.95
418.18	1135.86
418.54	1129.54
418.91	1126.27
419.28	1143.35
419.64	1144.29
420.01	1153.65
420.38	1176.82
420.74	1184.78
421.11	1191.10
421.48	1203.50
421.84	1222.93
422.21	1226.67
422.58	1240.25
422.94	1250.31
423.31	1254.76
423.68	1250.08
424.04	1249.61
424.41	1260.61
424.77	1268.57
425.14	1278.40
425.51	1293.61
425.87	1316.08
426.24	1332.94
426.61	1345.11
426.97	1365.00
427.34	1379.04
427.70	1390.28
428.07	1393.55
428.44	1408.53
428.80	1427.49
429.17	1441.54
429.53	1466.35
429.90	1493.26
430.27	1531.65
430.63	1561.37
431.00	1596.01
431.36	1614.27
431.73	1636.74
432.09	1647.27
432.46	1655.69
432.83	1683.31
433.19	1703.68
433.56	1733.17
433.92	1751.42
434.29	1776.00
434.65	1780.45
435.02	1817.19
435.38	1835.21
435.75	1874.54
436.11	1912.69
436.48	1941.01
436.84	1951.77
437.21	1975.88
437.57	1970.03
437.94	1975.88
438.30	1984.07
438.67	1994.14
439.03	1990.16
439.40	2005.84
439.76	1994.14
440.13	1993.43
440.49	1980.80
440.86	1971.67
441.22	1959.73
441.59	1952.94
441.95	1953.88
442.32	1934.69
442.68	1913.15
443.05	1894.90
443.41	1874.54
443.78	1852.30
444.14	1837.55
444.51	1843.41
444.87	1837.32
445.24	1839.90
445.60	1816.02
445.96	1812.04
446.33	1786.53
446.69	1763.13
447.06	1736.44
447.42	1730.36
447.79	1691.97
448.15	1666.93
448.51	1646.10
448.88	1617.31
449.24	1588.76
449.61	1589.46
449.97	1562.31
450.33	1557.39
450.70	1543.35
451.06	1531.41
451.43	1511.28
451.79	1510.58
452.15	1482.03
452.52	1473.13
452.88	1464.71
453.24	1459.56
453.61	1455.81
453.97	1454.17
454.34	1435.22
454.70	1429.60
455.06	1423.98
455.43	1395.90
455.79	1376.70
456.15	1368.51
456.52	1345.81
456.88	1332.00
457.24	1334.11
457.61	1325.68
457.97	1315.62
458.33	1304.85
458.70	1299.93
459.06	1292.91
459.42	1293.85
459.79	1301.57
460.15	1291.27
460.51	1284.49
460.88	1269.04
461.24	1263.66
461.60	1259.91
461.96	1254.76
462.33	1242.82
462.69	1243.53
463.05	1235.80
463.42	1218.95
463.78	1229.72
464.14	1226.21
464.50	1217.31
464.87	1209.35
465.23	1210.29
465.59	1204.91
465.95	1198.12
466.32	1198.35
466.68	1197.65
467.04	1199.99
467.40	1188.06
467.77	1186.65
468.13	1190.16
468.49	1179.63
468.85	1165.35
469.22	1170.03
469.58	1167.69
469.94	1157.16
470.30	1151.31
470.66	1145.93
471.03	1136.33
471.39	1141.25
471.75	1149.20
472.11	1153.42
472.47	1155.29
472.84	1150.14
473.20	1136.56
473.56	1124.16
473.92	1115.03
474.28	1121.35
474.65	1128.84
475.01	1127.90
475.37	1128.14
475.73	1139.37
476.09	1130.24
476.45	1116.90
476.81	1109.18
477.18	1111.29
477.54	1108.95
477.90	1111.75
478.26	1121.82
478.62	1130.95
478.98	1122.75
479.34	1125.56
479.71	1122.05
480.07	1118.07
480.43	1124.39
480.79	1130.95
481.15	1122.29
481.51	1129.31
481.87	1121.82
482.23	1116.44
482.59	1111.29
482.96	1117.37
483.32	1109.65
483.68	1107.31
484.04	1107.78
484.40	1105.44
484.76	1097.71
485.12	1088.82
485.48	1086.71
485.84	1081.33
486.20	1071.03
486.56	1071.97
486.92	1085.07
487.28	1099.35
487.64	1099.58
488.00	1111.75
488.37	1113.86
488.73	1113.39
489.09	1105.44
489.45	1099.35
489.81	1098.88
490.17	1095.60
490.53	1089.05
490.89	1085.54
491.25	1083.43
491.61	1079.22
491.97	1085.07
492.33	1083.43
492.69	1078.28
493.05	1078.28
493.41	1077.58
493.77	1079.46
494.13	1083.67
494.49	1088.12
494.85	1094.43
495.21	1103.09
495.57	1097.24
495.93	1083.20
496.29	1082.50
496.64	1083.67
497.00	1080.39
497.36	1079.69
497.72	1091.16
498.08	1102.39
498.44	1108.48
498.80	1102.16
499.16	1102.86
499.52	1103.09
499.88	1098.88
500.24	1083.20
500.60	1088.58
500.96	1086.48
501.32	1083.67
501.68	1079.92
502.03	1085.77
502.39	1080.63
502.75	1075.48
503.11	1072.67
503.47	1070.80
503.83	1062.37
504.19	1062.37
504.55	1054.41
504.91	1059.56
505.26	1063.07
505.62	1075.71
505.98	1082.50
506.34	1096.54
506.70	1099.12
507.06	1093.97
507.42	1093.03
507.78	1088.58
508.13	1086.94
508.49	1085.54
508.85	1086.94
509.21	1075.01
509.57	1077.35
509.93	1077.11
510.28	1077.35
510.64	1078.99
511.00	1089.05
511.36	1086.71
511.72	1086.71
512.07	1085.07
512.43	1086.24
512.79	1087.65
513.15	1081.56
513.51	1087.88
513.86	1083.43
514.22	1081.56
514.58	1082.26
514.94	1085.77
515.30	1080.86
515.65	1077.58
516.01	1077.11
516.37	1071.73
516.73	1077.11
517.08	1075.01
517.44	1079.92
517.80	1073.37
518.16	1070.33
518.51	1071.73
518.87	1063.77
519.23	1061.43
519.59	1075.01
519.94	1075.48
520.30	1069.62
520.66	1090.92
521.01	1096.31
521.37	1087.41
521.73	1090.92
522.09	1081.33
522.44	1069.86
522.80	1067.99
523.16	1071.50
523.51	1064.94
523.87	1077.58
524.23	1077.35
524.58	1077.11
524.94	1077.58
525.30	1088.82
525.65	1090.92
526.01	1085.77
526.37	1085.31
526.72	1083.43
527.08	1077.58
527.44	1078.52
527.79	1080.39
528.15	1080.39
528.51	1080.63
528.86	1083.67
529.22	1081.80
529.58	1080.86
529.93	1076.41
530.29	1070.80
530.65	1070.09
531.00	1071.73
531.36	1074.07
531.71	1081.56
532.07	1086.01
532.43	1083.67
532.78	1081.09
533.14	1082.03
533.49	1075.48
533.85	1078.52
534.21	1074.31
534.56	1081.33
534.92	1079.92
535.27	1093.26
535.63	1093.97
535.98	1097.01
536.34	1088.12
536.69	1080.86
537.05	1078.28
537.41	1077.11
537.76	1074.54
538.12	1074.07
538.47	1077.58
538.83	1062.37
539.18	1057.92
539.54	1064.94
539.89	1066.11
540.25	1074.31
540.60	1085.54
540.96	1094.67
541.31	1094.43
541.67	1092.33
542.02	1085.31
542.38	1083.20
542.73	1080.39
543.09	1075.24
543.44	1078.75
543.80	1070.80
544.15	1062.14
544.51	1059.56
544.86	1063.54
545.22	1064.24
545.57	1075.71
545.93	1078.28
546.28	1078.75
546.64	1079.22
546.99	1079.69
547.35	1074.77
547.70	1073.37
548.05	1061.90
548.41	1060.96
548.76	1055.11
549.12	1061.43
549.47	1060.73
549.83	1071.50
550.18	1058.86
550.53	1067.28
550.89	1075.71
551.24	1083.90
551.60	1081.09
551.95	1107.54
552.30	1097.71
552.66	1082.73
553.01	1085.54
553.37	1094.20
553.72	1083.67
554.07	1086.48
554.43	1087.65
554.78	1079.22
555.13	1072.20
555.49	1068.45
555.84	1071.50
556.19	1069.86
556.55	1082.03
556.90	1082.73
557.26	1076.18
557.61	1073.37
557.96	1078.05
558.32	1060.26
558.67	1059.79
559.02	1063.07
559.37	1064.94
559.73	1062.60
560.08	1067.52
560.43	1070.09
560.79	1079.46
561.14	1081.09
561.49	1086.01
561.85	1084.84
562.20	1074.54
562.55	1072.90
562.90	1067.28
563.26	1068.45
563.61	1066.35
563.96	1070.09
564.32	1064.24
564.67	1069.16
565.02	1054.41
565.37	1055.58
565.73	1059.56
566.08	1069.16
566.43	1064.01
566.78	1073.37
567.14	1076.65
567.49	1073.84
567.84	1066.82
568.19	1074.54
568.54	1071.50
568.90	1065.88
569.25	1065.88
569.60	1059.33
569.95	1056.05
570.31	1057.22
570.66	1068.45
571.01	1063.31
571.36	1073.60
571.71	1071.73
572.06	1076.88
572.42	1076.88
572.77	1077.35
573.12	1072.67
573.47	1074.77
573.82	1074.77
574.18	1078.52
574.53	1087.88
574.88	1086.01
575.23	1086.71
575.58	1084.14
575.93	1077.82
576.28	1080.86
576.64	1083.67
576.99	1075.71
577.34	1076.41
577.69	1082.97
578.04	1077.58
578.39	1073.37
578.74	1089.52
579.09	1092.33
579.44	1080.16
579.80	1090.92
580.15	1101.46
580.50	1084.14
580.85	1080.86
581.20	1088.58
581.55	1074.77
581.90	1064.48
582.25	1067.52
582.60	1070.56
582.95	1073.14
583.30	1068.92
583.65	1078.52
584.00	1079.69
584.35	1079.46
584.71	1077.58
585.06	1087.41
585.41	1073.60
585.76	1077.82
586.11	1075.94
586.46	1069.62
586.81	1058.39
587.16	1066.11
587.51	1063.31
587.86	1064.48
588.21	1070.33
588.56	1081.56
588.91	1081.33
589.26	1082.73
589.61	1082.73
589.96	1072.20
590.31	1073.84
590.66	1086.24
591.01	1087.18
591.36	1095.84
591.71	1112.46
592.06	1116.44
592.41	1101.46
592.76	1104.26
593.10	1096.07
593.45	1096.07
593.80	1088.58
594.15	1096.07
594.50	1097.01
594.85	1098.18
595.20	1078.05
595.55	1066.11
595.90	1062.14
596.25	1066.58
596.60	1056.75
596.95	1067.05
597.30	1069.86
597.64	1119.01
597.99	1117.37
598.34	1131.41
598.69	1137.73
599.04	1142.88
599.39	1104.73
599.74	1094.43
600.09	1085.31
600.44	1082.50
600.78	1083.90
601.13	1071.73
601.48	1080.86
601.83	1075.71
602.18	1073.37
602.53	1072.67
602.88	1074.31
603.22	1070.56
603.57	1079.46
603.92	1080.39
604.27	1083.43
604.62	1081.56
604.97	1087.18
605.31	1084.84
605.66	1085.07
606.01	1089.29
606.36	1089.52
606.71	1087.18
607.05	1085.54
607.40	1081.09
607.75	1084.60
608.10	1088.58
608.44	1081.80
608.79	1077.11
609.14	1080.39
609.49	1080.86
609.84	1081.09
610.18	1093.97
610.53	1098.18
610.88	1098.41
611.23	1093.03
611.57	1096.78
611.92	1091.86
612.27	1092.80
612.62	1101.46
612.96	1105.90
613.31	1104.03
613.66	1096.31
614.00	1100.75
614.35	1095.84
614.70	1091.39
615.05	1092.33
615.39	1100.52
615.74	1091.86
616.09	1087.65
616.43	1090.69
616.78	1076.65
617.13	1076.65
617.47	1082.73
617.82	1086.94
618.17	1081.09
618.51	1089.75
618.86	1081.09
619.21	1075.71
619.55	1064.24
619.90	1060.26
620.25	1064.24
620.59	1075.71
620.94	1075.01
621.29	1083.90
621.63	1094.67
621.98	1080.86
622.32	1068.22
622.67	1073.84
623.02	1078.28
623.36	1071.73
623.71	1087.18
624.05	1088.58
624.40	1081.09
624.75	1076.88
625.09	1083.20
625.44	1076.41
625.78	1079.22
626.13	1091.16
626.48	1093.50
626.82	1087.65
627.17	1082.03
627.51	1075.24
627.86	1072.90
628.20	1066.11
628.55	1071.73
628.89	1078.99
629.24	1085.31
629.58	1082.26
629.93	1091.16
630.28	1083.43
630.62	1082.73
630.97	1084.84
631.31	1076.65
631.66	1072.90
632.00	1073.14
632.35	1077.11
632.69	1076.41
633.04	1084.14
633.38	1084.14
633.73	1080.16
634.07	1073.37
634.42	1072.20
634.76	1076.18
635.11	1079.69
635.45	1086.94
635.79	1082.50
636.14	1086.71
636.48	1085.54
636.83	1084.37
637.17	1086.24
637.52	1089.75
637.86	1079.92
638.21	1071.03
638.55	1065.88
638.89	1059.79
639.24	1063.77
639.58	1064.48
639.93	1078.05
640.27	1078.75
640.61	1090.92
640.96	1089.99
641.30	1092.80
641.65	1086.94
641.99	1083.20
642.33	1079.92
642.68	1081.56
643.02	1081.09
643.37	1083.67
643.71	1095.14
644.05	1086.71
644.40	1086.71
644.74	1084.14
645.08	1086.94
645.43	1078.99
645.77	1080.63
646.11	1075.01
646.46	1073.60
646.80	1070.09
647.14	1074.07
647.49	1071.97
647.83	1070.80
648.17	1083.20
648.52	1090.22
648.86	1084.37
649.20	1084.37
649.55	1094.67
649.89	1086.71
650.23	1082.50
650.57	1079.92
650.92	1072.67
651.26	1064.24
651.60	1075.01
651.95	1067.99
652.29	1073.37
652.63	1083.90
652.97	1083.67
653.32	1073.84
653.66	1076.88
654.00	1075.94
654.34	1074.07
654.69	1075.01
655.03	1077.11
655.37	1068.92
655.71	1063.77
656.05	1056.99
656.40	1060.26
656.74	1058.86
657.08	1062.60
657.42	1075.94
657.76	1082.26
658.11	1082.03
658.45	1070.56
658.79	1068.45
659.13	1063.77
659.47	1070.56
659.82	1071.26
660.16	1086.48
660.50	1089.05
660.84	1091.86
661.18	1087.18
661.52	1089.52
661.87	1079.46
662.21	1087.18
662.55	1093.26
662.89	1095.37
663.23	1094.67
663.57	1102.39
663.91	1102.86
664.25	1096.78
664.60	1099.12
664.94	1097.24
665.28	1091.63
665.62	1080.39
665.96	1076.18
666.30	1071.73
666.64	1071.73
666.98	1076.88
667.32	1083.20
667.66	1087.88
668.01	1093.26
668.35	1091.16
668.69	1092.56
669.03	1092.09
669.37	1084.60
669.71	1071.26
670.05	1075.71
670.39	1078.28
670.73	1074.54
671.07	1084.14
671.41	1095.60
671.75	1089.52
672.09	1081.80
672.43	1094.43
672.77	1085.07
673.11	1079.92
673.45	1076.88
673.79	1087.65
674.13	1086.01
674.47	1096.31
674.81	1100.05
675.15	1110.35
675.49	1102.63
675.83	1105.90
676.17	1091.16
676.51	1089.75
676.85	1088.82
677.19	1089.99
677.53	1084.60
677.87	1080.86
678.21	1075.94
678.55	1075.01
678.89	1080.16
679.23	1073.60
679.57	1078.52
679.90	1085.07
680.24	1083.67
680.58	1078.28
680.92	1075.71
681.26	1081.56
681.60	1077.58
681.94	1072.90
682.28	1074.07
682.62	1074.77
682.96	1073.60
683.29	1066.58
683.63	1070.56
683.97	1073.37
684.31	1067.99
684.65	1062.14
684.99	1067.75
685.33	1077.11
685.67	1081.80
686.00	1090.22
686.34	1091.63
686.68	1096.54
687.02	1083.43
687.36	1077.11
687.70	1084.60
688.03	1090.92
688.37	1088.12
688.71	1086.94
689.05	1077.82
689.39	1074.31
689.72	1074.54
690.06	1075.48
690.40	1089.52
690.74	1095.60
691.08	1089.75
691.41	1082.03
691.75	1073.60
692.09	1055.58
692.43	1055.35
692.76	1051.37
693.10	1058.16
693.44	1060.03
693.78	1066.82
694.11	1066.82
694.45	1071.97
694.79	1061.67
695.13	1056.52
695.46	1053.48
695.80	1058.86
696.14	1057.45
696.48	1063.54
696.81	1080.39
697.15	1078.05
697.49	1076.88
697.82	1072.20
698.16	1075.24
698.50	1064.71
698.83	1082.97
699.17	1082.50
699.51	1095.14
699.84	1099.82
700.18	1102.86
700.52	1091.39
700.85	1086.71
701.19	1084.14
701.53	1078.52
701.86	1073.14
702.20	1068.22
702.54	1065.41
702.87	1063.07
703.21	1060.03
703.55	1071.50
703.88	1078.75
704.22	1079.46
704.55	1077.11
704.89	1084.14
705.23	1075.24
705.56	1073.37
705.90	1080.16
706.23	1074.77
706.57	1067.75
706.91	1075.94
707.24	1075.48
707.58	1068.69
707.91	1078.05
708.25	1085.07
708.58	1082.50
708.92	1089.52
709.26	1089.75
709.59	1085.07
709.93	1079.46
710.26	1078.28
710.60	1074.54
710.93	1070.33
711.27	1074.77
711.60	1077.82
711.94	1079.92
712.27	1079.46
712.61	1087.88
712.94	1076.18
713.28	1074.54
713.61	1067.99
713.95	1067.99
714.28	1065.88
714.62	1072.90
714.95	1067.99
715.29	1067.05
715.62	1056.99
715.96	1055.82
716.29	1068.45
716.63	1075.24
716.96	1083.67
717.29	1091.63
717.63	1093.26
717.96	1086.94
718.30	1086.01
718.63	1074.77
718.97	1069.86
719.30	1069.16
719.63	1060.50
719.97	1052.54
720.30	1065.18
720.64	1068.69
720.97	1062.84
721.30	1067.99
721.64	1076.18
721.97	1073.14
722.31	1070.56
722.64	1070.56
722.97	1072.43
723.31	1068.69
723.64	1063.77
723.97	1080.16
724.31	1081.80
724.64	1086.48
724.98	1090.69
725.31	1090.69
725.64	1079.92
725.98	1095.14
726.31	1084.37
726.64	1084.60
726.97	1086.24
727.31	1088.35
727.64	1086.94
727.97	1086.01
728.31	1089.75
728.64	1089.99
728.97	1080.39
729.31	1066.82
729.64	1067.28
729.97	1066.35
730.30	1064.01
730.64	1078.75
730.97	1088.58
731.30	1110.58
731.63	1104.26
731.97	1098.65
732.30	1090.22
732.63	1083.20
732.96	1073.84
733.30	1076.88
733.63	1090.46
733.96	1095.60
734.29	1090.22
734.63	1083.67
734.96	1078.28
735.29	1066.82
735.62	1069.39
735.95	1079.22
736.29	1073.60
736.62	1077.11
736.95	1086.94
737.28	1083.67
737.61	1074.77
737.94	1076.88
738.28	1077.58
738.61	1078.52
738.94	1069.16
739.27	1073.60
739.60	1078.99
739.93	1078.05
740.27	1067.99
740.60	1071.26
740.93	1074.31
741.26	1066.58
741.59	1074.77
741.92	1080.39
742.25	1081.09
742.58	1080.63
742.91	1082.50
743.25	1064.94
743.58	1066.11
743.91	1070.56
744.24	1078.75
744.57	1075.71
744.90	1081.33
745.23	1077.82
745.56	1066.58
745.89	1046.45
746.22	1050.43
746.55	1055.82
746.88	1049.96
747.21	1062.84
747.54	1075.24
747.87	1078.99
748.20	1084.14
748.53	1097.24
748.87	1088.82
749.20	1087.18
749.53	1078.75
749.86	1075.24
750.19	1069.39
750.52	1068.22
750.85	1071.73
751.18	1078.05
751.51	1078.28
751.84	1086.01
752.16	1078.28
752.49	1074.07
752.82	1060.26
753.15	1055.11
753.48	1048.79
753.81	1059.79
754.14	1061.67
754.47	1067.28
754.80	1074.54
755.13	1072.20
755.46	1075.24
755.79	1073.14
756.12	1083.67
756.45	1085.77
756.78	1086.01
757.11	1076.18
757.43	1083.43
757.76	1081.80
758.09	1074.77
758.42	1075.94
758.75	1080.16
759.08	1080.86
759.41	1089.29
759.74	1086.01
760.07	1087.18
760.39	1089.05
760.72	1073.37
761.05	1064.48
761.38	1062.37
761.71	1066.82
762.04	1074.54
762.36	1077.35
762.69	1069.62
763.02	1078.28
763.35	1076.41
763.68	1076.88
764.01	1083.20
764.33	1090.92
764.66	1095.60
764.99	1090.22
765.32	1077.11
765.65	1072.20
765.97	1070.56
766.30	1071.26
766.63	1076.65
766.96	1085.77
767.28	1088.35
767.61	1090.46
767.94	1084.84
768.27	1077.82
768.59	1076.65
768.92	1073.14
769.25	1075.48
769.58	1076.41
769.90	1083.90
770.23	1078.05
770.56	1079.22
770.89	1079.46
771.21	1075.71
771.54	1075.48
771.87	1084.37
772.19	1089.99
772.52	1084.14
772.85	1090.92
773.17	1084.14
773.50	1071.03
773.83	1078.52
774.15	1078.05
774.48	1066.58
774.81	1066.82
775.13	1069.39
775.46	1058.16
775.79	1055.11
776.11	1057.69
776.44	1062.14
776.77	1070.80
777.09	1070.33
777.42	1079.92
777.74	1071.26
778.07	1074.54
778.40	1067.28
778.72	1075.01
779.05	1076.88
779.37	1082.26
779.70	1073.37
780.03	1083.20
780.35	1077.58
780.68	1074.31
781.00	1084.60
781.33	1087.65
781.65	1081.09
781.98	1084.14
782.31	1078.99
782.63	1076.65
782.96	1075.48
783.28	1081.09
783.61	1080.39
783.93	1080.39
784.26	1080.16
784.58	1077.58
784.91	1070.56
785.23	1078.05
785.56	1078.28
785.88	1072.43
786.21	1068.92
786.53	1071.03
786.86	1063.07
787.18	1063.07
787.51	1072.90
787.83	1086.71
788.16	1089.05
788.48	1079.46
788.81	1079.46
789.13	1075.71
789.46	1064.94
789.78	1073.37
790.10	1088.12
790.43	1091.16
790.75	1081.56
791.08	1087.41
791.40	1077.11
791.73	1078.75
792.05	1084.84
792.37	1090.22
792.70	1090.22
793.02	1083.67
793.35	1070.09
793.67	1060.96
793.99	1056.75
794.32	1057.92
794.64	1068.22
794.96	1073.37
795.29	1072.90
795.61	1086.71
795.93	1094.67
796.26	1088.35
796.58	1093.50
796.91	1102.39
797.23	1090.22
797.55	1078.52
797.87	1079.69
798.20	1075.48
798.52	1069.39
798.84	1071.50
799.17	1071.03
799.49	1062.60
799.81	1067.05
800.14	1068.92
800.46	1075.01
800.78	1082.03
801.10	1091.16
801.43	1080.39
801.75	1082.03
802.07	1077.11
802.40	1073.37
802.72	1083.67
803.04	1094.67
803.36	1099.12
803.69	1105.90
804.01	1105.20
804.33	1091.16
804.65	1088.58
804.97	1078.05
805.30	1068.45
805.62	1066.35
805.94	1064.71
806.26	1068.69
806.58	1067.52
806.91	1076.88
807.23	1088.58
807.55	1095.37
807.87	1087.41
808.19	1097.95
808.52	1102.39
808.84	1087.88
809.16	1087.65
809.48	1093.03
809.80	1089.29
810.12	1077.58
810.44	1077.82
810.77	1071.26
811.09	1064.94
811.41	1063.77
811.73	1067.52
812.05	1077.11
812.37	1086.48
812.69	1092.80
813.01	1089.99
813.33	1088.82
813.66	1084.37
813.98	1081.09
814.30	1079.69
814.62	1076.18
814.94	1080.16
815.26	1073.60
815.58	1077.35
815.90	1069.62
816.22	1075.71
816.54	1069.62
816.86	1083.90
817.18	1077.82
817.50	1076.65
817.82	1067.52
818.14	1070.09
818.46	1066.82
818.78	1075.01
819.10	1076.18
819.42	1089.75
819.74	1088.35
820.06	1079.92
820.38	1073.14
820.70	1076.88
821.02	1071.50
821.34	1060.50
821.66	1069.62
821.98	1064.94
822.30	1071.73
822.62	1073.60
822.94	1074.54
823.26	1076.41
823.58	1086.94
823.90	1078.28
824.22	1074.77
824.54	1084.14
824.86	1080.16
825.18	1076.18
825.50	1089.52
825.81	1084.84
826.13	1089.52
826.45	1088.12
826.77	1092.56
827.09	1080.86
827.41	1089.29
827.73	1088.82
828.05	1089.52
828.36	1081.33
828.68	1085.07
829.00	1082.03
829.32	1081.33
829.64	1083.20
829.96	1074.54
830.28	1064.71
830.59	1062.37
830.91	1053.01
831.23	1048.56
831.55	1066.35
831.87	1082.26
832.19	1086.71
832.50	1089.75
832.82	1078.52
833.14	1057.22
833.46	1045.75
833.78	1038.03
834.09	1047.39
834.41	1055.58
834.73	1071.73
835.05	1068.45
835.36	1083.90
835.68	1078.52
836.00	1081.56
836.32	1092.80
836.63	1097.71
836.95	1089.75
837.27	1085.54
837.59	1084.37
837.90	1073.14
838.22	1075.71
838.54	1087.88
838.85	1092.56
839.17	1091.63
839.49	1087.18
839.80	1089.75
840.12	1070.80
840.44	1071.03
840.76	1064.01
841.07	1064.94
841.39	1057.22
841.71	1057.69
842.02	1054.41
842.34	1069.86
842.65	1075.01
842.97	1081.09
843.29	1082.97
843.60	1087.41
843.92	1067.75
844.24	1068.92
844.55	1063.31
844.87	1061.43
845.18	1069.16
845.50	1080.63
845.82	1077.35
846.13	1079.69
846.45	1079.92
846.76	1076.88
847.08	1091.86
847.40	1090.46
847.71	1087.88
848.03	1101.46
848.34	1101.69
848.66	1085.07
848.97	1081.33
849.29	1082.03
849.60	1072.67
849.92	1064.48
850.24	1061.43
850.55	1073.60
850.87	1080.86
851.18	1083.20
851.50	1079.46
851.81	1081.09
852.13	1075.94
852.44	1074.77
852.76	1069.39
853.07	1073.14
853.39	1083.20
853.70	1085.07
854.01	1084.14
854.33	1096.54
854.64	1097.95
854.96	1089.75
855.27	1085.77
855.59	1087.88
855.90	1086.94
856.22	1086.94
856.53	1088.82
856.84	1083.90
857.16	1075.48
857.47	1065.88
857.79	1065.18
858.10	1064.24
858.41	1071.03
858.73	1082.50
859.04	1080.63
859.36	1079.69
859.67	1086.24
859.98	1088.12
860.30	1089.05
860.61	1093.26
860.92	1096.54
861.24	1097.95
861.55	1089.75
861.87	1083.67
862.18	1089.29
862.49	1090.92
862.81	1083.90
863.12	1077.11
863.43	1065.88
863.74	1064.48
864.06	1066.35
864.37	1064.71
864.68	1062.14
865.00	1065.65
865.31	1054.65
865.62	1051.60
865.94	1053.01
866.25	1056.05
866.56	1064.71
866.87	1071.26
867.19	1071.50
867.50	1075.01
867.81	1077.58
868.12	1070.33
868.44	1075.71
868.75	1075.71
869.06	1072.43
869.37	1075.71
869.68	1086.94
870.00	1078.28
870.31	1075.01
870.62	1082.03
870.93	1088.12
871.24	1085.31
871.56	1096.07
871.87	1096.54
872.18	1101.22
872.49	1093.50
872.80	1096.54
873.12	1086.48
873.43	1093.97
873.74	1082.26
874.05	1091.63
874.36	1079.69
874.67	1083.67
874.98	1078.28
875.29	1085.07
875.61	1085.54
875.92	1089.29
876.23	1091.86
876.54	1096.31
876.85	1086.24
877.16	1074.54
877.47	1081.80
877.78	1074.77
878.09	1069.39
878.40	1073.84
878.72	1077.82
879.03	1069.86
879.34	1066.82
879.65	1069.16
879.96	1071.97
880.27	1075.71
880.58	1068.22
880.89	1081.33
881.20	1082.50
881.51	1077.58
881.82	1072.90
882.13	1087.88
882.44	1077.82
882.75	1073.60
883.06	1080.63
883.37	1076.88
883.68	1069.86
883.99	1065.65
884.30	1056.28
884.61	1047.16
884.92	1063.54
885.23	1061.67
885.54	1074.07
885.85	1092.56
886.16	1098.18
886.47	1094.67
886.78	1100.29
887.08	1097.95
887.39	1080.86
887.70	1076.41
888.01	1073.37
888.32	1068.92
888.63	1063.77
888.94	1080.63
889.25	1079.92
889.56	1075.71
889.87	1090.22
890.17	1096.78
890.48	1083.20
890.79	1090.46
891.10	1091.63
891.41	1077.82
891.72	1071.26
892.03	1076.41
892.34	1072.90
892.64	1074.07
892.95	1075.94
893.26	1073.84
893.57	1068.92
893.88	1063.54
894.18	1061.20
894.49	1063.77
894.80	1064.71
895.11	1070.80
895.42	1079.46
895.72	1083.90
896.03	1078.28
896.34	1080.63
896.65	1074.07
896.96	1064.71
897.26	1059.33
897.57	1055.82
897.88	1057.45
898.19	1065.41
898.49	1069.62
898.80	1067.28
899.11	1076.88
899.41	1081.56
899.72	1082.73
900.03	1087.18
900.34	1091.16
900.64	1083.43
900.95	1081.33
901.26	1081.80
901.56	1085.07
901.87	1079.92
902.18	1087.41
902.48	1086.48
902.79	1085.31
903.10	1071.50
903.40	1081.09
903.71	1077.11
904.02	1077.35
904.32	1073.14
904.63	1084.84
904.94	1075.48
905.24	1073.14
905.55	1072.20
905.85	1075.94
906.16	1071.50
906.47	1074.77
906.77	1075.48
907.08	1073.84
907.38	1065.88
907.69	1068.45
908.00	1082.03
908.30	1086.94
908.61	1078.52
908.91	1072.67
909.22	1069.16
909.52	1060.73
909.83	1060.26
910.14	1065.18
910.44	1072.90
910.75	1076.88
911.05	1075.01
911.36	1065.18
911.66	1069.16
911.97	1075.94
912.27	1071.03
912.58	1078.75
912.88	1097.95
913.19	1097.95
913.49	1094.43
913.80	1096.31
914.10	1091.63
914.41	1074.54
914.71	1080.16
915.01	1076.65
915.32	1080.86
915.62	1074.77
915.93	1079.22
916.23	1070.09
916.54	1070.33
916.84	1068.92
917.15	1073.14
917.45	1074.07
917.75	1072.90
918.06	1078.75
918.36	1075.71
918.67	1075.01
918.97	1072.67
919.27	1080.16
919.58	1075.48
919.88	1069.16
920.18	1065.18
920.49	1071.26
920.79	1068.69
921.10	1067.05
921.40	1074.77
921.70	1078.28
922.01	1075.48
922.31	1074.77
922.61	1072.43
922.92	1069.16
923.22	1076.88
923.52	1084.14
923.82	1089.05
924.13	1104.26
924.43	1113.63
924.73	1103.33
925.04	1092.09
925.34	1086.24
925.64	1080.63
925.94	1079.69
926.25	1087.88
926.55	1093.50
926.85	1090.46
927.15	1089.29
927.46	1087.88
927.76	1088.58
928.06	1088.12
928.36	1091.63
928.67	1084.60
928.97	1084.60
929.27	1081.33
929.57	1082.03
929.87	1091.16
930.18	1090.92
930.48	1089.29
930.78	1083.43
931.08	1077.35
931.38	1073.60
931.69	1069.39
931.99	1058.16
932.29	1060.26
932.59	1064.71
932.89	1054.88
933.19	1063.07
933.49	1068.22
933.80	1067.28
934.10	1071.97
934.40	1075.94
934.70	1068.92
935.00	1078.28
935.30	1084.14
935.60	1082.03
935.90	1080.86
936.20	1093.26
936.50	1084.60
936.81	1083.67
937.11	1077.35
937.41	1075.71
937.71	1072.67
938.01	1074.31
938.31	1070.80
938.61	1070.09
938.91	1070.80
939.21	1065.41
939.51	1057.92
939.81	1056.52
940.11	1064.01
940.41	1058.16
940.71	1060.73
941.01	1067.75
941.31	1067.05
941.61	1066.35
941.91	1074.31
942.21	1079.92
942.51	1079.69
942.81	1086.24
943.11	1085.54
943.41	1086.94
943.71	1093.50
944.01	1095.37
944.31	1096.54
944.61	1101.22
944.90	1104.50
945.20	1100.52
945.50	1097.24
945.80	1096.07
946.10	1081.56
946.40	1080.16
946.70	1071.26
947.00	1077.58
947.30	1070.33
947.60	1082.03
947.89	1077.11
948.19	1073.37
948.49	1075.94
948.79	1074.07
949.09	1072.90
949.39	1083.43
949.69	1083.20
949.98	1078.05
950.28	1075.01
950.58	1070.33
950.88	1062.60
951.18	1071.26
951.48	1069.62
951.77	1076.88
952.07	1074.31
952.37	1078.99
952.67	1078.52
952.97	1070.09
953.26	1072.43
953.56	1072.20
953.86	1063.07
954.16	1058.16
954.45	1060.96
954.75	1061.90
955.05	1069.86
955.35	1075.48
955.64	1075.01
955.94	1086.71
956.24	1083.90
956.54	1085.54
956.83	1085.31
957.13	1090.46
957.43	1090.69
957.72	1083.43
958.02	1082.97
958.32	1086.94
958.61	1090.22
958.91	1082.73
959.21	1082.97
959.50	1077.11
959.80	1064.01
960.10	1051.84
960.39	1046.69
960.69	1057.69
960.99	1056.28
961.28	1064.71
961.58	1065.88
961.87	1073.14
962.17	1073.14
962.47	1073.14
962.76	1071.50
963.06	1068.22
963.36	1065.65
963.65	1053.24
963.95	1056.75
964.24	1054.41
964.54	1065.41
964.83	1071.73
965.13	1082.03
965.42	1070.80
965.72	1072.43
966.02	1084.37
966.31	1080.63
966.61	1074.77
966.90	1090.46
967.20	1088.58
967.49	1067.05
967.79	1075.71
968.08	1080.86
968.38	1073.84
968.67	1078.05
968.97	1087.41
969.26	1073.84
969.56	1071.97
969.85	1077.82
970.15	1079.69
970.44	1068.69
970.74	1079.92
971.03	1071.26
971.32	1066.58
971.62	1055.58
971.91	1068.22
972.21	1062.14
972.50	1065.41
972.80	1064.01
973.09	1063.77
973.38	1053.24
973.68	1051.37
973.97	1057.22
974.27	1064.48
974.56	1069.86
974.85	1076.88
975.15	1082.50
975.44	1073.84
975.73	1073.14
976.03	1087.65
976.32	1090.92
976.61	1088.35
976.91	1094.67
977.20	1086.94
977.49	1080.39
977.79	1079.69
978.08	1076.65
978.37	1089.75
978.67	1097.48
978.96	1097.71
979.25	1100.75
979.55	1103.56
979.84	1088.35
980.13	1078.52
980.42	1071.97
980.72	1064.24
981.01	1058.39
981.30	1062.37
981.59	1063.31
981.89	1068.69
982.18	1068.92
982.47	1075.94
982.76	1069.86
983.06	1067.99
983.35	1061.20
983.64	1059.33
983.93	1058.62
984.22	1060.73
984.52	1071.50
984.81	1066.82
985.10	1082.97
985.39	1080.63
985.68	1086.24
985.97	1081.56
986.27	1084.84
986.56	1067.99
986.85	1073.84
987.14	1068.45
987.43	1080.86
987.72	1088.82
988.01	1095.60
988.31	1083.90
988.60	1086.94
988.89	1076.88
989.18	1072.67
989.47	1071.73
989.76	1071.73
990.05	1067.75
990.34	1064.48
990.63	1064.48
990.92	1060.73
991.21	1075.01
991.51	1085.54
991.80	1078.99
992.09	1074.31
992.38	1081.33
992.67	1073.37
992.96	1064.01
993.25	1067.99
993.54	1071.26
993.83	1070.09
994.12	1064.94
994.41	1066.58
994.70	1081.09
994.99	1084.84
995.28	1078.28
995.57	1083.90
995.86	1083.20
996.15	1074.77
996.44	1083.90
996.73	1085.77
997.02	1096.07
997.31	1104.03
997.59	1097.95
997.88	1088.12
998.17	1083.90
998.46	1075.24
998.75	1074.54
999.04	1067.52
999.33	1072.20
999.62	1072.67
999.91	1068.45
1000.20	1067.52
1000.49	1085.77
1000.77	1086.01
1001.06	1087.65
1001.35	1091.16
1001.64	1087.41
1001.93	1079.22
1002.22	1073.60
1002.51	1073.37
1002.79	1067.99
1003.08	1067.99
1003.37	1065.65
1003.66	1065.41
1003.95	1070.56
1004.23	1073.37
1004.52	1074.77
1004.81	1075.24
1005.10	1077.82
1005.39	1074.07
1005.67	1072.90
1005.96	1072.90
1006.25	1076.65
1006.54	1073.60
1006.83	1074.54
1007.11	1079.22
1007.40	1081.09
1007.69	1078.75
1007.97	1074.77
1008.26	1065.88
1008.55	1065.88
1008.84	1060.73
1009.12	1064.94
1009.41	1069.39
1009.70	1069.86
1009.98	1073.84
1010.27	1077.35
1010.56	1069.86
1010.85	1071.03
1011.13	1079.46
1011.42	1071.26
1011.71	1076.65
1011.99	1081.80
1012.28	1083.67
1012.56	1087.18
1012.85	1095.84
1013.14	1089.99
1013.42	1085.54
1013.71	1080.63
1014.00	1082.50
1014.28	1079.92
1014.57	1087.41
1014.85	1087.18
1015.14	1093.97
1015.43	1085.07
1015.71	1089.75
1016.00	1080.39
1016.28	1082.97
1016.57	1077.35
1016.85	1081.09
1017.14	1079.46
1017.43	1081.09
1017.71	1081.33
1018.00	1082.03
1018.28	1085.07
1018.57	1080.63
1018.85	1076.41
1019.14	1078.05
1019.42	1073.14
1019.71	1066.58
1019.99	1064.48
1020.28	1075.71
1020.56	1077.35
1020.85	1076.18
1021.13	1079.92
1021.42	1082.26
1021.70	1078.05
1021.99	1069.86
1022.27	1082.50
1022.55	1048.56
1022.84	1108.24
>>>>>End Processed Spectral Data<<<<<
