SpectraSuite Data File
++++++++++++++++++++++++++++++++++++
Date: Mon Aug 26 10:24:34 PDT 2019
User: corrico
Dark Spectrum Present: No
Reference Spectrum Present: No
Number of Sampled Component Spectra: 1
Spectrometers: USB2+H06089
Integration Time (usec): 10000 (USB2+H06089)
Spectra Averaged: 2 (USB2+H06089)
Boxcar Smoothing: 2 (USB2+H06089)
Correct for Electrical Dark: No (USB2+H06089)
Strobe/Lamp Enabled: No (USB2+H06089)
Correct for Detector Non-linearity: No (USB2+H06089)
Correct for Stray Light: No (USB2+H06089)
Number of Pixels in Processed Spectrum: 2048
>>>>>Begin Processed Spectral Data<<<<<
339.70	1039.20
340.07	1039.20
340.45	985.13
340.82	968.05
341.19	937.15
341.57	909.77
341.94	910.70
342.31	914.45
342.69	901.34
343.06	902.04
343.43	895.02
343.81	892.21
344.18	896.66
344.55	896.19
344.93	899.94
345.30	906.96
345.67	909.53
346.04	913.75
346.42	929.19
346.79	942.53
347.16	958.92
347.54	976.24
347.91	983.02
348.28	985.60
348.65	999.17
349.03	1001.05
349.40	1008.54
349.77	1021.88
350.14	1034.98
350.52	1035.45
350.89	1036.62
351.26	1039.20
351.63	1037.33
352.01	1045.52
352.38	1047.39
352.75	1064.71
353.12	1067.52
353.50	1071.03
353.87	1082.26
354.24	1094.20
354.61	1093.73
354.98	1107.31
355.36	1110.58
355.73	1098.41
356.10	1090.46
356.47	1100.99
356.84	1088.12
357.22	1095.37
357.59	1092.09
357.96	1095.60
358.33	1092.80
358.70	1098.88
359.08	1094.90
359.45	1100.75
359.82	1097.01
360.19	1092.56
360.56	1090.46
360.94	1084.84
361.31	1081.09
361.68	1090.69
362.05	1086.01
362.42	1078.75
362.79	1088.58
363.16	1095.37
363.54	1080.16
363.91	1081.56
364.28	1085.77
364.65	1077.58
365.02	1065.88
365.39	1070.80
365.76	1063.31
366.14	1062.14
366.51	1056.75
366.88	1072.67
367.25	1068.22
367.62	1072.67
367.99	1073.14
368.36	1072.20
368.73	1056.28
369.10	1069.62
369.48	1061.20
369.85	1052.54
370.22	1048.56
370.59	1059.33
370.96	1044.35
371.33	1053.24
371.70	1060.26
372.07	1067.28
372.44	1064.94
372.81	1079.69
373.18	1083.90
373.55	1093.97
373.93	1097.24
374.30	1092.56
374.67	1087.88
375.04	1081.33
375.41	1073.37
375.78	1063.77
376.15	1071.73
376.52	1064.24
376.89	1066.35
377.26	1071.97
377.63	1070.33
378.00	1067.99
378.37	1061.90
378.74	1063.54
379.11	1052.77
379.48	1058.62
379.85	1053.48
380.22	1066.35
380.59	1059.09
380.96	1058.86
381.33	1057.45
381.70	1057.22
382.07	1054.65
382.44	1068.69
382.81	1079.22
383.18	1077.82
383.55	1087.18
383.92	1092.80
384.29	1089.99
384.66	1089.29
385.03	1094.20
385.40	1084.60
385.77	1086.48
386.14	1080.86
386.51	1082.73
386.88	1077.58
387.25	1078.05
387.62	1070.09
387.99	1069.62
388.36	1061.67
388.73	1060.96
389.10	1060.96
389.46	1057.69
389.83	1061.67
390.20	1063.31
390.57	1067.52
390.94	1066.82
391.31	1057.45
391.68	1045.52
392.05	1049.96
392.42	1045.99
392.79	1047.62
393.16	1060.73
393.53	1064.24
393.89	1054.41
394.26	1050.20
394.63	1042.71
395.00	1038.50
395.37	1048.09
395.74	1063.54
396.11	1074.77
396.48	1077.11
396.84	1086.24
397.21	1074.31
397.58	1066.82
397.95	1061.67
398.32	1064.01
398.69	1058.86
399.06	1068.45
399.42	1069.39
399.79	1076.88
400.16	1079.22
400.53	1083.90
400.90	1082.26
401.27	1080.86
401.64	1080.16
402.00	1080.86
402.37	1074.77
402.74	1075.94
403.11	1076.65
403.48	1083.43
403.84	1088.12
404.21	1093.26
404.58	1099.82
404.95	1098.88
405.32	1094.20
405.68	1093.73
406.05	1095.84
406.42	1101.22
406.79	1109.41
407.16	1107.54
407.52	1114.33
407.89	1119.24
408.26	1119.71
408.63	1120.41
408.99	1123.22
409.36	1114.80
409.73	1116.67
410.10	1111.05
410.47	1116.20
410.83	1126.27
411.20	1138.20
411.57	1143.12
411.94	1154.59
412.30	1160.20
412.67	1161.14
413.04	1171.91
413.40	1171.44
413.77	1175.89
414.14	1187.35
414.51	1204.44
414.87	1210.29
415.24	1228.31
415.61	1233.93
415.97	1233.70
416.34	1224.80
416.71	1226.21
417.08	1230.19
417.44	1239.08
417.81	1256.17
418.18	1287.06
418.54	1305.32
418.91	1320.53
419.28	1344.87
419.64	1350.72
420.01	1365.47
420.38	1398.47
420.74	1420.00
421.11	1438.03
421.48	1476.41
421.84	1510.58
422.21	1533.99
422.58	1557.86
422.94	1588.52
423.31	1614.27
423.68	1626.44
424.04	1651.48
424.41	1688.70
424.77	1723.10
425.14	1768.98
425.51	1819.30
425.87	1865.88
426.24	1906.83
426.61	1963.94
426.97	2021.99
427.34	2084.95
427.70	2124.74
428.07	2198.47
428.44	2260.02
428.80	2313.62
429.17	2365.11
429.53	2440.48
429.90	2516.54
430.27	2579.27
430.63	2656.04
431.00	2720.87
431.36	2807.71
431.73	2862.71
432.09	2941.82
432.46	3011.10
432.83	3102.15
433.19	3175.17
433.56	3278.62
433.92	3378.10
434.29	3459.08
434.65	3533.51
435.02	3603.72
435.38	3658.96
435.75	3714.66
436.11	3769.90
436.48	3835.67
436.84	3909.63
437.21	3965.80
437.57	4012.15
437.94	4077.68
438.30	4115.60
438.67	4152.58
439.03	4199.39
439.40	4241.05
439.76	4243.86
440.13	4246.90
440.49	4222.79
440.86	4194.71
441.22	4159.83
441.59	4148.83
441.95	4121.22
442.32	4105.53
442.68	4063.17
443.05	4014.25
443.41	3955.97
443.78	3898.16
444.14	3827.01
444.51	3776.22
444.87	3741.81
445.24	3674.64
445.60	3616.83
445.96	3542.87
446.33	3476.16
446.69	3363.35
447.06	3300.62
447.42	3223.85
447.79	3142.64
448.15	3071.95
448.51	3023.27
448.88	2966.86
449.24	2938.54
449.61	2913.50
449.97	2869.26
450.33	2833.69
450.70	2783.37
451.06	2715.72
451.43	2664.93
451.79	2619.29
452.15	2578.80
452.52	2532.93
452.88	2500.63
453.24	2466.22
453.61	2432.28
453.97	2389.22
454.34	2350.13
454.70	2314.32
455.06	2283.89
455.43	2248.08
455.79	2194.49
456.15	2156.10
456.52	2110.46
456.88	2074.18
457.24	2024.33
457.61	2007.95
457.97	1986.18
458.33	1958.33
458.70	1920.41
459.06	1893.49
459.42	1868.22
459.79	1834.51
460.15	1807.83
460.51	1787.70
460.88	1760.08
461.24	1727.55
461.60	1702.04
461.96	1685.89
462.33	1666.46
462.69	1662.01
463.05	1643.06
463.42	1624.57
463.78	1606.31
464.14	1589.46
464.50	1565.12
464.87	1557.16
465.23	1545.46
465.59	1526.50
465.95	1516.20
466.32	1506.13
466.68	1487.18
467.04	1463.77
467.40	1453.47
467.77	1443.88
468.13	1434.75
468.49	1420.24
468.85	1409.70
469.22	1403.62
469.58	1388.17
469.94	1382.32
470.30	1370.15
470.66	1372.72
471.03	1357.74
471.39	1343.94
471.75	1323.34
472.11	1325.45
472.47	1313.74
472.84	1310.70
473.20	1316.55
473.56	1322.40
473.92	1313.51
474.28	1312.10
474.65	1313.04
475.01	1299.23
475.37	1281.91
475.73	1271.38
476.09	1260.61
476.45	1255.23
476.81	1247.51
477.18	1251.95
477.54	1251.25
477.90	1254.76
478.26	1247.74
478.62	1244.70
478.98	1236.74
479.34	1237.21
479.71	1230.89
480.07	1233.93
480.43	1232.76
480.79	1224.33
481.15	1212.63
481.51	1206.08
481.87	1192.27
482.23	1194.84
482.59	1202.33
482.96	1207.72
483.32	1210.29
483.68	1215.44
484.04	1213.80
484.40	1203.50
484.76	1204.44
485.12	1199.76
485.48	1203.50
485.84	1196.25
486.20	1196.95
486.56	1189.69
486.92	1191.57
487.28	1175.18
487.64	1167.23
488.00	1162.08
488.37	1160.91
488.73	1159.50
489.09	1159.74
489.45	1162.54
489.81	1156.69
490.17	1155.99
490.53	1152.48
490.89	1150.61
491.25	1144.29
491.61	1144.52
491.97	1142.88
492.33	1141.48
492.69	1133.05
493.05	1136.56
493.41	1140.54
493.77	1129.07
494.13	1127.44
494.49	1136.10
494.85	1132.59
495.21	1131.65
495.57	1147.33
495.93	1143.59
496.29	1137.73
496.64	1148.73
497.00	1154.59
497.36	1141.95
497.72	1134.69
498.08	1135.39
498.44	1120.88
498.80	1109.18
499.16	1112.92
499.52	1118.31
499.88	1115.97
500.24	1112.22
500.60	1120.88
500.96	1117.61
501.32	1113.86
501.68	1112.92
502.03	1119.48
502.39	1121.58
502.75	1115.73
503.11	1118.78
503.47	1121.82
503.83	1118.78
504.19	1107.78
504.55	1114.56
504.91	1115.73
505.26	1109.18
505.62	1109.88
505.98	1101.69
506.34	1098.88
506.70	1093.03
507.06	1091.39
507.42	1077.58
507.78	1084.60
508.13	1079.69
508.49	1083.90
508.85	1084.37
509.21	1091.39
509.57	1093.50
509.93	1108.01
510.28	1113.39
510.64	1108.95
511.00	1112.92
511.36	1110.12
511.72	1099.82
512.07	1087.18
512.43	1091.86
512.79	1085.31
513.15	1091.16
513.51	1092.80
513.86	1099.82
514.22	1106.14
514.58	1110.35
514.94	1102.63
515.30	1098.41
515.65	1100.05
516.01	1099.12
516.37	1099.82
516.73	1102.39
517.08	1101.46
517.44	1098.88
517.80	1097.71
518.16	1101.22
518.51	1101.22
518.87	1104.26
519.23	1104.03
519.59	1100.75
519.94	1100.75
520.30	1093.97
520.66	1099.58
521.01	1091.63
521.37	1084.60
521.73	1077.82
522.09	1080.86
522.44	1080.86
522.80	1086.48
523.16	1094.20
523.51	1097.71
523.87	1101.92
524.23	1088.82
524.58	1086.48
524.94	1088.82
525.30	1091.16
525.65	1087.18
526.01	1094.43
526.37	1097.71
526.72	1103.09
527.08	1101.22
527.44	1100.05
527.79	1103.09
528.15	1100.29
528.51	1096.31
528.86	1097.24
529.22	1096.54
529.58	1087.65
529.93	1095.60
530.29	1090.46
530.65	1087.41
531.00	1080.63
531.36	1072.43
531.71	1062.60
532.07	1065.88
532.43	1068.92
532.78	1069.62
533.14	1081.80
533.49	1089.05
533.85	1084.84
534.21	1079.22
534.56	1087.18
534.92	1082.50
535.27	1082.03
535.63	1082.73
535.98	1089.05
536.34	1099.35
536.69	1101.69
537.05	1099.58
537.41	1101.22
537.76	1100.99
538.12	1088.35
538.47	1082.50
538.83	1089.29
539.18	1084.37
539.54	1082.26
539.89	1086.24
540.25	1099.12
540.60	1084.37
540.96	1088.35
541.31	1079.46
541.67	1079.92
542.02	1071.97
542.38	1081.56
542.73	1080.16
543.09	1089.05
543.44	1080.16
543.80	1076.18
544.15	1075.01
544.51	1071.03
544.86	1070.56
545.22	1072.43
545.57	1075.48
545.93	1067.05
546.28	1079.92
546.64	1074.54
546.99	1075.24
547.35	1074.77
547.70	1077.11
548.05	1058.86
548.41	1061.90
548.76	1070.33
549.12	1084.14
549.47	1091.63
549.83	1097.71
550.18	1095.14
550.53	1096.07
550.89	1090.69
551.24	1083.20
551.60	1086.24
551.95	1084.37
552.30	1078.52
552.66	1069.62
553.01	1077.11
553.37	1081.09
553.72	1075.94
554.07	1074.07
554.43	1085.54
554.78	1077.58
555.13	1073.60
555.49	1085.54
555.84	1081.09
556.19	1076.41
556.55	1083.20
556.90	1084.14
557.26	1088.35
557.61	1099.82
557.96	1097.71
558.32	1092.80
558.67	1095.37
559.02	1098.41
559.37	1100.05
559.73	1102.16
560.08	1105.20
560.43	1100.29
560.79	1093.73
561.14	1076.88
561.49	1068.69
561.85	1070.09
562.20	1070.09
562.55	1065.65
562.90	1075.48
563.26	1071.73
563.61	1065.41
563.96	1069.39
564.32	1065.41
564.67	1065.41
565.02	1080.86
565.37	1082.73
565.73	1078.05
566.08	1082.26
566.43	1088.35
566.78	1093.73
567.14	1093.97
567.49	1091.39
567.84	1099.35
568.19	1088.82
568.54	1067.99
568.90	1064.24
569.25	1071.73
569.60	1064.94
569.95	1077.58
570.31	1083.90
570.66	1087.88
571.01	1087.18
571.36	1084.84
571.71	1082.97
572.06	1088.12
572.42	1086.48
572.77	1089.29
573.12	1087.65
573.47	1078.28
573.82	1074.07
574.18	1083.67
574.53	1082.50
574.88	1096.54
575.23	1096.78
575.58	1104.03
575.93	1091.63
576.28	1090.92
576.64	1084.60
576.99	1088.58
577.34	1089.99
577.69	1097.48
578.04	1100.52
578.39	1096.78
578.74	1094.20
579.09	1083.43
579.44	1080.39
579.80	1075.24
580.15	1067.75
580.50	1070.09
580.85	1071.26
581.20	1073.14
581.55	1075.71
581.90	1075.94
582.25	1076.65
582.60	1074.77
582.95	1076.65
583.30	1078.05
583.65	1078.52
584.00	1076.65
584.35	1079.92
584.71	1077.11
585.06	1059.56
585.41	1071.97
585.76	1069.39
586.11	1076.41
586.46	1074.77
586.81	1095.84
587.16	1094.43
587.51	1096.78
587.86	1084.60
588.21	1088.58
588.56	1081.80
588.91	1085.31
589.26	1080.16
589.61	1084.14
589.96	1081.09
590.31	1078.99
590.66	1070.33
591.01	1070.80
591.36	1075.24
591.71	1080.16
592.06	1075.48
592.41	1069.39
592.76	1065.65
593.10	1061.43
593.45	1051.13
593.80	1055.35
594.15	1054.18
594.50	1065.65
594.85	1062.37
595.20	1068.22
595.55	1074.31
595.90	1089.52
596.25	1085.07
596.60	1092.33
596.95	1087.88
597.30	1083.20
597.64	1131.88
597.99	1141.25
598.34	1144.29
598.69	1143.12
599.04	1142.18
599.39	1085.54
599.74	1071.97
600.09	1067.05
600.44	1073.84
600.78	1077.11
601.13	1080.86
601.48	1080.39
601.83	1079.22
602.18	1083.43
602.53	1071.73
602.88	1079.92
603.22	1089.05
603.57	1094.67
603.92	1086.24
604.27	1102.63
604.62	1094.20
604.97	1089.05
605.31	1088.35
605.66	1093.73
606.01	1082.97
606.36	1088.58
606.71	1090.69
607.05	1092.80
607.40	1079.92
607.75	1085.31
608.10	1073.14
608.44	1070.33
608.79	1059.09
609.14	1070.80
609.49	1066.58
609.84	1068.69
610.18	1072.67
610.53	1080.16
610.88	1083.67
611.23	1086.94
611.57	1081.09
611.92	1085.07
612.27	1085.31
612.62	1079.92
612.96	1085.31
613.31	1097.95
613.66	1091.63
614.00	1087.41
614.35	1085.07
614.70	1077.58
615.05	1061.90
615.39	1058.62
615.74	1045.52
616.09	1042.24
616.43	1040.84
616.78	1058.62
617.13	1056.99
617.47	1074.31
617.82	1077.82
618.17	1082.73
618.51	1074.54
618.86	1085.07
619.21	1083.43
619.55	1089.75
619.90	1090.69
620.25	1099.58
620.59	1088.58
620.94	1094.67
621.29	1096.07
621.63	1096.78
621.98	1087.18
622.32	1093.73
622.67	1085.07
623.02	1075.48
623.36	1079.92
623.71	1088.58
624.05	1096.54
624.40	1105.67
624.75	1111.05
625.09	1104.50
625.44	1101.22
625.78	1096.07
626.13	1086.01
626.48	1087.41
626.82	1084.84
627.17	1084.37
627.51	1089.29
627.86	1096.78
628.20	1092.09
628.55	1091.39
628.89	1096.78
629.24	1081.80
629.58	1074.07
629.93	1079.46
630.28	1078.99
630.62	1071.50
630.97	1073.84
631.31	1070.33
631.66	1067.52
632.00	1067.75
632.35	1063.77
632.69	1068.69
633.04	1085.77
633.38	1083.90
633.73	1093.97
634.07	1100.99
634.42	1100.99
634.76	1089.75
635.11	1088.82
635.45	1087.88
635.79	1083.20
636.14	1089.52
636.48	1090.69
636.83	1098.65
637.17	1084.84
637.52	1093.03
637.86	1098.41
638.21	1097.24
638.55	1092.80
638.89	1096.07
639.24	1090.22
639.58	1081.56
639.93	1086.01
640.27	1091.63
640.61	1087.18
640.96	1078.28
641.30	1067.75
641.65	1069.39
641.99	1056.99
642.33	1066.35
642.68	1076.41
643.02	1079.69
643.37	1077.11
643.71	1083.20
644.05	1080.86
644.40	1080.63
644.74	1079.22
645.08	1077.82
645.43	1082.50
645.77	1078.28
646.11	1069.39
646.46	1075.71
646.80	1074.54
647.14	1070.56
647.49	1072.67
647.83	1073.37
648.17	1070.09
648.52	1059.56
648.86	1056.52
649.20	1057.92
649.55	1067.99
649.89	1071.03
650.23	1080.63
650.57	1085.77
650.92	1082.03
651.26	1068.22
651.60	1075.71
651.95	1071.50
652.29	1062.37
652.63	1075.48
652.97	1084.14
653.32	1072.43
653.66	1077.58
654.00	1075.01
654.34	1069.62
654.69	1063.77
655.03	1071.73
655.37	1064.24
655.71	1079.69
656.05	1076.18
656.40	1084.60
656.74	1082.26
657.08	1086.71
657.42	1084.14
657.76	1083.67
658.11	1087.65
658.45	1089.29
658.79	1094.67
659.13	1096.31
659.47	1093.97
659.82	1078.28
660.16	1067.75
660.50	1062.14
660.84	1057.92
661.18	1068.22
661.52	1081.33
661.87	1089.05
662.21	1097.71
662.55	1098.65
662.89	1094.67
663.23	1088.58
663.57	1088.58
663.91	1086.24
664.25	1077.58
664.60	1064.71
664.94	1059.09
665.28	1053.94
665.62	1058.86
665.96	1070.56
666.30	1070.09
666.64	1082.03
666.98	1084.37
667.32	1077.82
667.66	1081.56
668.01	1092.33
668.35	1087.41
668.69	1093.97
669.03	1085.54
669.37	1084.37
669.71	1088.35
670.05	1076.18
670.39	1076.41
670.73	1089.29
671.07	1084.60
671.41	1077.35
671.75	1089.99
672.09	1088.35
672.43	1082.50
672.77	1078.75
673.11	1082.26
673.45	1078.05
673.79	1078.52
674.13	1073.37
674.47	1074.54
674.81	1063.07
675.15	1076.65
675.49	1066.58
675.83	1071.97
676.17	1071.50
676.51	1072.67
676.85	1066.11
677.19	1078.05
677.53	1064.24
677.87	1058.62
678.21	1058.62
678.55	1053.71
678.89	1050.43
679.23	1063.07
679.57	1067.99
679.90	1074.77
680.24	1070.09
680.58	1067.52
680.92	1074.31
681.26	1077.11
681.60	1076.88
681.94	1095.14
682.28	1089.29
682.62	1085.31
682.96	1076.88
683.29	1080.39
683.63	1072.67
683.97	1072.90
684.31	1060.26
684.65	1065.88
684.99	1064.48
685.33	1056.52
685.67	1056.75
686.00	1071.26
686.34	1073.37
686.68	1077.58
687.02	1079.92
687.36	1082.50
687.70	1080.16
688.03	1080.63
688.37	1077.82
688.71	1077.11
689.05	1084.14
689.39	1086.24
689.72	1079.22
690.06	1076.65
690.40	1076.65
690.74	1071.50
691.08	1067.75
691.41	1067.52
691.75	1066.58
692.09	1070.56
692.43	1077.58
692.76	1074.31
693.10	1079.92
693.44	1084.14
693.78	1094.43
694.11	1087.18
694.45	1084.14
694.79	1083.43
695.13	1077.35
695.46	1070.09
695.80	1077.35
696.14	1077.58
696.48	1077.35
696.81	1083.20
697.15	1078.05
697.49	1061.90
697.82	1060.03
698.16	1071.50
698.50	1067.28
698.83	1071.50
699.17	1083.67
699.51	1095.84
699.84	1088.12
700.18	1092.56
700.52	1093.73
700.85	1097.01
701.19	1094.43
701.53	1095.14
701.86	1093.26
702.20	1086.01
702.54	1083.43
702.87	1081.80
703.21	1078.52
703.55	1081.80
703.88	1095.84
704.22	1085.54
704.55	1089.29
704.89	1077.35
705.23	1067.05
705.56	1061.90
705.90	1071.03
706.23	1067.28
706.57	1074.54
706.91	1079.69
707.24	1071.03
707.58	1070.80
707.91	1067.99
708.25	1065.88
708.58	1067.75
708.92	1068.69
709.26	1071.73
709.59	1072.67
709.93	1074.07
710.26	1071.50
710.60	1070.80
710.93	1066.58
711.27	1069.86
711.60	1070.56
711.94	1069.86
712.27	1069.62
712.61	1068.45
712.94	1062.14
713.28	1057.69
713.61	1062.14
713.95	1069.16
714.28	1074.07
714.62	1081.56
714.95	1092.56
715.29	1089.05
715.62	1084.37
715.96	1082.97
716.29	1082.50
716.63	1078.28
716.96	1078.28
717.29	1081.80
717.63	1075.48
717.96	1075.48
718.30	1079.22
718.63	1082.03
718.97	1078.05
719.30	1084.14
719.63	1080.39
719.97	1076.88
720.30	1076.18
720.64	1078.28
720.97	1071.73
721.30	1077.11
721.64	1084.14
721.97	1084.84
722.31	1085.54
722.64	1086.01
722.97	1078.99
723.31	1078.99
723.64	1084.60
723.97	1085.54
724.31	1085.31
724.64	1081.56
724.98	1077.82
725.31	1072.20
725.64	1066.58
725.98	1076.41
726.31	1086.01
726.64	1081.80
726.97	1085.31
727.31	1089.05
727.64	1069.86
727.97	1066.35
728.31	1056.28
728.64	1050.43
728.97	1052.07
729.31	1062.84
729.64	1057.92
729.97	1067.52
730.30	1067.99
730.64	1062.14
730.97	1060.03
731.30	1066.82
731.63	1065.65
731.97	1062.60
732.30	1069.16
732.63	1075.48
732.96	1073.37
733.30	1076.88
733.63	1087.18
733.96	1089.99
734.29	1093.50
734.63	1090.92
734.96	1093.26
735.29	1080.86
735.62	1085.54
735.95	1073.14
736.29	1081.33
736.62	1072.67
736.95	1073.14
737.28	1068.45
737.61	1080.63
737.94	1072.43
738.28	1074.77
738.61	1080.39
738.94	1073.60
739.27	1067.28
739.60	1080.16
739.93	1087.41
740.27	1100.52
740.60	1100.75
740.93	1104.03
741.26	1090.46
741.59	1094.67
741.92	1076.18
742.25	1075.71
742.58	1069.39
742.91	1066.11
743.25	1062.37
743.58	1061.43
743.91	1061.90
744.24	1063.54
744.57	1070.80
744.90	1067.99
745.23	1076.88
745.56	1073.84
745.89	1082.97
746.22	1081.09
746.55	1086.24
746.88	1084.37
747.21	1090.69
747.54	1078.99
747.87	1068.92
748.20	1067.28
748.53	1066.35
748.87	1055.82
749.20	1053.71
749.53	1064.01
749.86	1058.86
750.19	1056.75
750.52	1069.62
750.85	1080.86
751.18	1082.73
751.51	1077.11
751.84	1085.77
752.16	1075.01
752.49	1073.84
752.82	1069.62
753.15	1078.52
753.48	1071.50
753.81	1079.69
754.14	1067.05
754.47	1064.71
754.80	1054.88
755.13	1052.77
755.46	1053.48
755.79	1059.09
756.12	1079.69
756.45	1089.05
756.78	1097.01
757.11	1090.22
757.43	1103.80
757.76	1087.41
758.09	1080.63
758.42	1082.97
758.75	1091.63
759.08	1079.46
759.41	1088.12
759.74	1098.41
760.07	1088.58
760.39	1083.90
760.72	1082.50
761.05	1076.41
761.38	1069.86
761.71	1075.01
762.04	1081.09
762.36	1085.54
762.69	1087.41
763.02	1085.31
763.35	1087.65
763.68	1086.01
764.01	1084.60
764.33	1080.39
764.66	1080.39
764.99	1079.22
765.32	1075.24
765.65	1079.22
765.97	1079.69
766.30	1083.43
766.63	1089.75
766.96	1078.52
767.28	1072.90
767.61	1075.48
767.94	1068.22
768.27	1053.94
768.59	1065.88
768.92	1071.50
769.25	1071.97
769.58	1081.56
769.90	1089.75
770.23	1094.67
770.56	1094.90
770.89	1088.58
771.21	1087.41
771.54	1087.18
771.87	1085.77
772.19	1081.80
772.52	1090.22
772.85	1089.05
773.17	1093.26
773.50	1085.07
773.83	1089.29
774.15	1082.50
774.48	1079.92
774.81	1067.99
775.13	1064.01
775.46	1056.28
775.79	1045.75
776.11	1044.58
776.44	1049.96
776.77	1062.60
777.09	1059.79
777.42	1073.14
777.74	1074.54
778.07	1069.62
778.40	1074.54
778.72	1084.84
779.05	1082.26
779.37	1087.18
779.70	1090.69
780.03	1077.58
780.35	1066.82
780.68	1068.69
781.00	1063.31
781.33	1054.88
781.65	1060.50
781.98	1068.45
782.31	1071.03
782.63	1065.18
782.96	1075.94
783.28	1079.69
783.61	1085.07
783.93	1082.26
784.26	1093.50
784.58	1091.63
784.91	1086.71
785.23	1084.84
785.56	1084.37
785.88	1078.28
786.21	1081.33
786.53	1085.77
786.86	1085.77
787.18	1089.29
787.51	1090.46
787.83	1095.14
788.16	1090.46
788.48	1091.86
788.81	1085.07
789.13	1098.18
789.46	1085.31
789.78	1082.97
790.10	1074.54
790.43	1076.18
790.75	1064.48
791.08	1073.84
791.40	1077.11
791.73	1083.67
792.05	1083.43
792.37	1089.05
792.70	1086.94
793.02	1089.05
793.35	1085.77
793.67	1094.43
793.99	1089.29
794.32	1086.71
794.64	1079.22
794.96	1077.35
795.29	1070.80
795.61	1069.62
795.93	1073.14
796.26	1075.01
796.58	1074.31
796.91	1067.28
797.23	1060.50
797.55	1062.37
797.87	1068.69
798.20	1071.03
798.52	1082.26
798.84	1093.73
799.17	1089.99
799.49	1078.99
799.81	1090.46
800.14	1085.31
800.46	1090.46
800.78	1097.01
801.10	1100.05
801.43	1090.22
801.75	1096.31
802.07	1092.56
802.40	1078.75
802.72	1079.22
803.04	1082.50
803.36	1081.09
803.69	1073.14
804.01	1075.24
804.33	1083.20
804.65	1080.86
804.97	1071.26
805.30	1072.90
805.62	1081.33
805.94	1068.45
806.26	1065.65
806.58	1073.84
806.91	1078.75
807.23	1076.88
807.55	1084.60
807.87	1089.05
808.19	1087.88
808.52	1081.09
808.84	1084.14
809.16	1076.65
809.48	1082.73
809.80	1086.94
810.12	1092.33
810.44	1074.77
810.77	1088.58
811.09	1081.33
811.41	1083.90
811.73	1074.54
812.05	1083.67
812.37	1081.33
812.69	1076.88
813.01	1067.99
813.33	1075.71
813.66	1071.73
813.98	1069.16
814.30	1065.65
814.62	1068.69
814.94	1071.26
815.26	1072.67
815.58	1059.79
815.90	1072.43
816.22	1069.62
816.54	1059.56
816.86	1064.94
817.18	1079.22
817.50	1071.50
817.82	1072.90
818.14	1076.18
818.46	1073.60
818.78	1071.73
819.10	1070.80
819.42	1075.01
819.74	1071.97
820.06	1077.82
820.38	1071.50
820.70	1076.41
821.02	1069.62
821.34	1079.22
821.66	1072.43
821.98	1081.80
822.30	1082.50
822.62	1082.50
822.94	1079.92
823.26	1082.73
823.58	1078.75
823.90	1069.39
824.22	1075.94
824.54	1078.99
824.86	1083.90
825.18	1079.69
825.50	1083.90
825.81	1082.26
826.13	1074.07
826.45	1073.84
826.77	1081.80
827.09	1075.71
827.41	1067.75
827.73	1073.84
828.05	1080.39
828.36	1081.09
828.68	1100.29
829.00	1103.09
829.32	1107.07
829.64	1099.35
829.96	1096.31
830.28	1093.73
830.59	1095.14
830.91	1086.94
831.23	1081.56
831.55	1088.35
831.87	1071.73
832.19	1071.73
832.50	1074.54
832.82	1072.43
833.14	1063.54
833.46	1072.43
833.78	1072.67
834.09	1066.35
834.41	1081.33
834.73	1086.24
835.05	1077.35
835.36	1079.69
835.68	1079.69
836.00	1062.14
836.32	1063.31
836.63	1061.90
836.95	1051.60
837.27	1060.73
837.59	1068.92
837.90	1065.88
838.22	1078.52
838.54	1088.58
838.85	1086.01
839.17	1087.65
839.49	1084.60
839.80	1077.58
840.12	1082.73
840.44	1089.99
840.76	1088.35
841.07	1091.39
841.39	1093.26
841.71	1088.82
842.02	1090.46
842.34	1089.29
842.65	1083.67
842.97	1077.35
843.29	1079.46
843.60	1067.99
843.92	1078.52
844.24	1079.22
844.55	1094.67
844.87	1091.16
845.18	1089.05
845.50	1078.52
845.82	1082.73
846.13	1069.39
846.45	1062.60
846.76	1070.09
847.08	1071.50
847.40	1077.35
847.71	1082.03
848.03	1090.92
848.34	1087.18
848.66	1088.35
848.97	1080.39
849.29	1079.46
849.60	1073.14
849.92	1081.09
850.24	1079.46
850.55	1084.60
850.87	1087.18
851.18	1094.67
851.50	1094.90
851.81	1095.60
852.13	1083.67
852.44	1081.56
852.76	1083.20
853.07	1076.18
853.39	1074.07
853.70	1079.92
854.01	1079.69
854.33	1082.26
854.64	1086.48
854.96	1084.60
855.27	1088.82
855.59	1089.52
855.90	1082.50
856.22	1084.14
856.53	1090.22
856.84	1080.39
857.16	1082.26
857.47	1075.01
857.79	1059.33
858.10	1049.96
858.41	1053.71
858.73	1054.41
859.04	1067.75
859.36	1081.80
859.67	1090.92
859.98	1091.39
860.30	1087.18
860.61	1078.75
860.92	1064.71
861.24	1064.48
861.55	1073.60
861.87	1071.26
862.18	1072.67
862.49	1078.75
862.81	1080.86
863.12	1060.73
863.43	1055.11
863.74	1049.03
864.06	1051.60
864.37	1038.03
864.68	1050.67
865.00	1060.96
865.31	1063.31
865.62	1064.94
865.94	1065.65
866.25	1074.07
866.56	1078.52
866.87	1081.09
867.19	1073.84
867.50	1072.20
867.81	1056.52
868.12	1060.03
868.44	1063.54
868.75	1066.35
869.06	1078.52
869.37	1087.65
869.68	1084.84
870.00	1083.43
870.31	1085.54
870.62	1076.65
870.93	1074.54
871.24	1065.41
871.56	1065.18
871.87	1065.18
872.18	1075.01
872.49	1077.82
872.80	1083.20
873.12	1085.07
873.43	1085.54
873.74	1079.22
874.05	1070.09
874.36	1063.77
874.67	1056.75
874.98	1052.30
875.29	1061.67
875.61	1070.56
875.92	1079.46
876.23	1075.48
876.54	1079.69
876.85	1072.90
877.16	1072.90
877.47	1072.67
877.78	1091.39
878.09	1086.24
878.40	1077.35
878.72	1078.99
879.03	1070.56
879.34	1066.82
879.65	1072.90
879.96	1087.65
880.27	1083.67
880.58	1086.71
880.89	1071.03
881.20	1078.99
881.51	1068.45
881.82	1065.41
882.13	1069.62
882.44	1085.07
882.75	1077.82
883.06	1075.01
883.37	1078.28
883.68	1073.14
883.99	1072.43
884.30	1073.37
884.61	1076.65
884.92	1080.16
885.23	1075.48
885.54	1078.99
885.85	1075.01
886.16	1071.26
886.47	1068.69
886.78	1079.22
887.08	1073.84
887.39	1080.39
887.70	1087.88
888.01	1078.52
888.32	1073.60
888.63	1068.22
888.94	1067.28
889.25	1073.60
889.56	1078.52
889.87	1076.18
890.17	1082.03
890.48	1081.80
890.79	1078.99
891.10	1075.24
891.41	1084.37
891.72	1073.60
892.03	1073.37
892.34	1074.77
892.64	1081.09
892.95	1070.56
893.26	1078.52
893.57	1084.14
893.88	1074.54
894.18	1082.03
894.49	1096.07
894.80	1098.65
895.11	1088.58
895.42	1094.90
895.72	1090.92
896.03	1081.33
896.34	1065.88
896.65	1073.60
896.96	1067.05
897.26	1061.43
897.57	1049.96
897.88	1062.60
898.19	1057.22
898.49	1066.82
898.80	1064.71
899.11	1078.05
899.41	1093.26
899.72	1097.48
900.03	1088.35
900.34	1089.05
900.64	1083.43
900.95	1070.33
901.26	1064.48
901.56	1066.58
901.87	1065.65
902.18	1071.73
902.48	1057.69
902.79	1042.71
903.10	1044.58
903.40	1050.67
903.71	1048.33
904.02	1049.50
904.32	1068.22
904.63	1077.82
904.94	1071.26
905.24	1070.56
905.55	1082.50
905.85	1076.88
906.16	1059.79
906.47	1064.01
906.77	1076.88
907.08	1069.16
907.38	1069.62
907.69	1072.67
908.00	1078.52
908.30	1068.92
908.61	1075.01
908.91	1078.52
909.22	1085.07
909.52	1083.67
909.83	1080.63
910.14	1078.28
910.44	1079.69
910.75	1075.71
911.05	1066.82
911.36	1062.14
911.66	1057.92
911.97	1055.58
912.27	1063.31
912.58	1072.43
912.88	1084.84
913.19	1094.43
913.49	1100.29
913.80	1091.63
914.10	1091.63
914.41	1081.33
914.71	1079.22
915.01	1074.07
915.32	1076.65
915.62	1077.58
915.93	1079.22
916.23	1079.92
916.54	1071.97
916.84	1065.18
917.15	1060.73
917.45	1066.58
917.75	1072.90
918.06	1078.52
918.36	1087.18
918.67	1088.82
918.97	1087.41
919.27	1093.03
919.58	1098.18
919.88	1097.48
920.18	1097.71
920.49	1099.35
920.79	1081.09
921.10	1076.88
921.40	1074.77
921.70	1080.16
922.01	1076.41
922.31	1082.97
922.61	1083.43
922.92	1086.94
923.22	1087.41
923.52	1098.18
923.82	1103.33
924.13	1099.12
924.43	1101.92
924.73	1098.65
925.04	1086.71
925.34	1085.54
925.64	1095.14
925.94	1085.31
926.25	1080.63
926.55	1084.60
926.85	1080.16
927.15	1075.01
927.46	1084.14
927.76	1078.75
928.06	1081.56
928.36	1083.43
928.67	1086.71
928.97	1102.86
929.27	1111.05
929.57	1098.41
929.87	1088.58
930.18	1085.31
930.48	1067.28
930.78	1070.33
931.08	1071.97
931.38	1091.63
931.69	1095.60
931.99	1097.24
932.29	1088.82
932.59	1094.43
932.89	1086.94
933.19	1086.48
933.49	1089.99
933.80	1093.97
934.10	1092.80
934.40	1082.03
934.70	1073.60
935.00	1063.31
935.30	1057.22
935.60	1052.07
935.90	1060.26
936.20	1076.65
936.50	1084.60
936.81	1085.77
937.11	1087.88
937.41	1089.05
937.71	1077.11
938.01	1078.05
938.31	1080.63
938.61	1085.31
938.91	1076.88
939.21	1075.01
939.51	1073.37
939.81	1078.75
940.11	1078.99
940.41	1084.60
940.71	1088.58
941.01	1087.41
941.31	1083.90
941.61	1084.60
941.91	1083.67
942.21	1086.48
942.51	1085.07
942.81	1087.65
943.11	1082.97
943.41	1089.52
943.71	1086.94
944.01	1086.48
944.31	1081.56
944.61	1088.58
944.90	1078.05
945.20	1070.56
945.50	1061.90
945.80	1067.99
946.10	1066.82
946.40	1073.84
946.70	1086.71
947.00	1093.73
947.30	1089.99
947.60	1090.69
947.89	1077.58
948.19	1072.90
948.49	1071.97
948.79	1072.67
949.09	1059.79
949.39	1064.94
949.69	1061.43
949.98	1063.77
950.28	1065.65
950.58	1076.65
950.88	1082.03
951.18	1080.86
951.48	1080.86
951.77	1082.26
952.07	1080.39
952.37	1080.39
952.67	1085.07
952.97	1077.82
953.26	1078.99
953.56	1074.54
953.86	1069.86
954.16	1065.18
954.45	1077.58
954.75	1074.07
955.05	1080.86
955.35	1068.92
955.64	1064.94
955.94	1062.60
956.24	1064.48
956.54	1056.28
956.83	1059.79
957.13	1068.69
957.43	1058.62
957.72	1057.45
958.02	1059.56
958.32	1072.67
958.61	1062.84
958.91	1066.11
959.21	1070.33
959.50	1080.63
959.80	1082.97
960.10	1092.33
960.39	1098.65
960.69	1092.80
960.99	1088.82
961.28	1077.11
961.58	1071.97
961.87	1068.92
962.17	1067.28
962.47	1061.90
962.76	1073.84
963.06	1080.86
963.36	1088.58
963.65	1092.80
963.95	1096.78
964.24	1090.22
964.54	1088.82
964.83	1075.01
965.13	1075.24
965.42	1078.52
965.72	1088.35
966.02	1089.99
966.31	1092.33
966.61	1091.39
966.90	1092.80
967.20	1085.77
967.49	1083.43
967.79	1089.29
968.08	1091.39
968.38	1082.26
968.67	1075.24
968.97	1076.88
969.26	1073.37
969.56	1076.41
969.85	1074.54
970.15	1083.43
970.44	1076.18
970.74	1070.33
971.03	1061.90
971.32	1079.92
971.62	1070.09
971.91	1078.52
972.21	1092.56
972.50	1096.07
972.80	1086.01
973.09	1087.65
973.38	1080.63
973.68	1080.39
973.97	1080.39
974.27	1075.24
974.56	1085.77
974.85	1080.86
975.15	1074.77
975.44	1070.09
975.73	1078.28
976.03	1075.48
976.32	1076.88
976.61	1074.31
976.91	1069.62
977.20	1064.48
977.49	1068.69
977.79	1073.14
978.08	1072.67
978.37	1083.20
978.67	1081.80
978.96	1075.48
979.25	1081.09
979.55	1088.58
979.84	1086.01
980.13	1077.11
980.42	1069.39
980.72	1065.18
981.01	1057.22
981.30	1053.24
981.59	1060.03
981.89	1070.56
982.18	1071.03
982.47	1079.22
982.76	1088.58
983.06	1095.37
983.35	1097.48
983.64	1096.31
983.93	1092.56
984.22	1090.69
984.52	1078.28
984.81	1068.69
985.10	1073.60
985.39	1075.48
985.68	1073.84
985.97	1079.92
986.27	1084.84
986.56	1081.09
986.85	1071.97
987.14	1065.65
987.43	1075.24
987.72	1081.56
988.01	1084.60
988.31	1086.94
988.60	1090.92
988.89	1089.29
989.18	1083.43
989.47	1074.31
989.76	1074.77
990.05	1077.35
990.34	1076.41
990.63	1079.92
990.92	1080.16
991.21	1081.09
991.51	1078.05
991.80	1072.20
992.09	1074.31
992.38	1084.14
992.67	1091.86
992.96	1092.56
993.25	1099.82
993.54	1095.60
993.83	1090.22
994.12	1090.69
994.41	1096.07
994.70	1089.75
994.99	1088.35
995.28	1087.41
995.57	1075.94
995.86	1075.48
996.15	1076.18
996.44	1073.37
996.73	1072.20
997.02	1078.99
997.31	1081.09
997.59	1077.35
997.88	1077.82
998.17	1089.29
998.46	1085.77
998.75	1080.39
999.04	1086.01
999.33	1087.18
999.62	1078.99
999.91	1082.03
1000.20	1084.60
1000.49	1081.09
1000.77	1079.46
1001.06	1079.22
1001.35	1079.69
1001.64	1070.80
1001.93	1069.39
1002.22	1063.07
1002.51	1072.67
1002.79	1077.58
1003.08	1089.52
1003.37	1089.52
1003.66	1098.65
1003.95	1086.48
1004.23	1071.73
1004.52	1069.39
1004.81	1078.52
1005.10	1080.86
1005.39	1078.75
1005.67	1093.73
1005.96	1088.82
1006.25	1086.71
1006.54	1089.52
1006.83	1092.80
1007.11	1085.07
1007.40	1088.35
1007.69	1087.41
1007.97	1083.20
1008.26	1092.80
1008.55	1099.58
1008.84	1105.44
1009.12	1106.37
1009.41	1112.92
1009.70	1106.84
1009.98	1093.50
1010.27	1092.33
1010.56	1088.35
1010.85	1080.16
1011.13	1069.86
1011.42	1085.31
1011.71	1070.56
1011.99	1068.69
1012.28	1068.69
1012.56	1079.69
1012.85	1075.71
1013.14	1084.14
1013.42	1090.22
1013.71	1084.14
1014.00	1079.22
1014.28	1093.03
1014.57	1091.63
1014.85	1083.43
1015.14	1083.20
1015.43	1085.07
1015.71	1070.09
1016.00	1064.01
1016.28	1061.43
1016.57	1078.75
1016.85	1081.09
1017.14	1079.69
1017.43	1082.73
1017.71	1093.26
1018.00	1086.24
1018.28	1086.24
1018.57	1101.22
1018.85	1105.90
1019.14	1103.56
1019.42	1097.01
1019.71	1095.37
1019.99	1077.11
1020.28	1077.11
1020.56	1071.73
1020.85	1076.65
1021.13	1080.86
1021.42	1073.84
1021.70	1075.94
1021.99	1080.16
1022.27	1081.09
1022.55	1082.50
1022.84	1091.86
>>>>>End Processed Spectral Data<<<<<
