SpectraSuite Data File
++++++++++++++++++++++++++++++++++++
Date: Mon Aug 26 10:24:36 PDT 2019
User: corrico
Dark Spectrum Present: No
Reference Spectrum Present: No
Number of Sampled Component Spectra: 1
Spectrometers: USB2+H06089
Integration Time (usec): 10000 (USB2+H06089)
Spectra Averaged: 2 (USB2+H06089)
Boxcar Smoothing: 2 (USB2+H06089)
Correct for Electrical Dark: No (USB2+H06089)
Strobe/Lamp Enabled: No (USB2+H06089)
Correct for Detector Non-linearity: No (USB2+H06089)
Correct for Stray Light: No (USB2+H06089)
Number of Pixels in Processed Spectrum: 2048
>>>>>Begin Processed Spectral Data<<<<<
339.70	1068.45
340.07	1068.45
340.45	1014.86
340.82	986.30
341.19	960.09
341.57	923.58
341.94	913.75
342.31	909.30
342.69	896.43
343.06	882.15
343.43	880.28
343.81	883.08
344.18	884.49
344.55	895.25
344.93	905.09
345.30	911.17
345.67	918.19
346.04	931.77
346.42	940.19
346.79	949.32
347.16	964.30
347.54	971.32
347.91	977.88
348.28	983.49
348.65	994.26
349.03	1005.03
349.40	1014.39
349.77	1019.77
350.14	1036.39
350.52	1046.22
350.89	1047.62
351.26	1058.39
351.63	1073.60
352.01	1079.92
352.38	1086.24
352.75	1093.03
353.12	1103.33
353.50	1111.75
353.87	1120.88
354.24	1124.86
354.61	1124.86
354.98	1116.67
355.36	1099.82
355.73	1097.24
356.10	1090.46
356.47	1099.82
356.84	1104.50
357.22	1111.52
357.59	1105.20
357.96	1108.01
358.33	1102.86
358.70	1101.22
359.08	1106.61
359.45	1109.18
359.82	1105.20
360.19	1104.97
360.56	1097.01
360.94	1095.84
361.31	1090.69
361.68	1089.52
362.05	1079.22
362.42	1087.88
362.79	1087.41
363.16	1080.39
363.54	1084.60
363.91	1080.63
364.28	1067.99
364.65	1064.24
365.02	1066.82
365.39	1065.41
365.76	1085.07
366.14	1093.50
366.51	1094.67
366.88	1096.78
367.25	1104.03
367.62	1094.90
367.99	1091.39
368.36	1089.29
368.73	1089.99
369.10	1081.33
369.48	1089.52
369.85	1098.88
370.22	1102.39
370.59	1101.69
370.96	1104.50
371.33	1095.60
371.70	1099.82
372.07	1098.18
372.44	1104.03
372.81	1108.24
373.18	1110.58
373.55	1097.71
373.93	1089.05
374.30	1090.69
374.67	1085.31
375.04	1085.54
375.41	1083.67
375.78	1099.35
376.15	1100.05
376.52	1103.33
376.89	1108.24
377.26	1116.90
377.63	1106.84
378.00	1100.52
378.37	1101.69
378.74	1097.24
379.11	1092.09
379.48	1096.54
379.85	1093.73
380.22	1086.24
380.59	1083.90
380.96	1081.80
381.33	1091.39
381.70	1096.54
382.07	1102.86
382.44	1105.67
382.81	1108.01
383.18	1100.29
383.55	1102.86
383.92	1106.14
384.29	1102.86
384.66	1108.01
385.03	1110.82
385.40	1105.44
385.77	1104.97
386.14	1110.82
386.51	1104.03
386.88	1098.18
387.25	1100.05
387.62	1110.58
387.99	1113.16
388.36	1126.03
388.73	1130.95
389.10	1128.61
389.46	1127.90
389.83	1132.59
390.20	1123.46
390.57	1123.93
390.94	1137.27
391.31	1132.59
391.68	1134.93
392.05	1143.35
392.42	1134.46
392.79	1128.61
393.16	1121.35
393.53	1111.75
393.89	1118.31
394.26	1125.56
394.63	1134.69
395.00	1142.65
395.37	1146.16
395.74	1144.99
396.11	1148.27
396.48	1148.97
396.84	1144.05
397.21	1149.67
397.58	1155.05
397.95	1156.69
398.32	1145.93
398.69	1146.16
399.06	1146.39
399.42	1138.20
399.79	1143.82
400.16	1162.78
400.53	1166.99
400.90	1167.23
401.27	1172.61
401.64	1178.23
402.00	1174.71
402.37	1183.84
402.74	1206.55
403.11	1219.19
403.48	1222.93
403.84	1233.93
404.21	1248.44
404.58	1254.53
404.95	1255.93
405.32	1281.21
405.68	1293.85
406.05	1310.93
406.42	1321.47
406.79	1349.08
407.16	1359.38
407.52	1391.92
407.89	1414.39
408.26	1441.54
408.63	1470.09
408.99	1492.09
409.36	1511.28
409.73	1547.09
410.10	1584.54
410.47	1626.67
410.83	1686.12
411.20	1739.02
411.57	1785.83
411.94	1839.66
412.30	1909.88
412.67	1963.71
413.04	2028.07
413.40	2109.76
413.77	2205.25
414.14	2280.85
414.51	2373.07
414.87	2489.63
415.24	2602.91
415.61	2693.02
415.97	2796.00
416.34	2918.88
416.71	3036.38
417.08	3161.83
417.44	3333.63
417.81	3514.55
418.18	3723.09
418.54	3945.44
418.91	4149.54
419.28	4358.08
419.64	4561.70
420.01	4787.57
420.38	5019.04
420.74	5288.21
421.11	5596.92
421.48	5909.38
421.84	6242.91
422.21	6563.33
422.58	6944.14
422.94	7306.92
423.31	7689.83
423.68	8100.13
424.04	8563.32
424.41	9010.13
424.77	9505.62
425.14	10039.73
425.51	10567.99
425.87	11150.55
426.24	11769.85
426.61	12422.39
426.97	13191.26
427.34	13926.89
427.70	14684.76
428.07	15423.90
428.44	16201.89
428.80	16987.14
429.17	17830.90
429.53	18711.65
429.90	19727.44
430.27	20624.57
430.63	21514.44
431.00	22536.32
431.36	23596.81
431.73	24537.01
432.09	25562.63
432.46	26597.85
432.83	27618.09
433.19	28479.17
433.56	29600.99
433.92	30758.62
434.29	31826.37
434.65	32872.59
435.02	33942.45
435.38	34817.58
435.75	35512.95
436.11	36433.95
436.48	37254.07
436.84	38034.17
437.21	38835.34
437.57	39625.74
437.94	40227.72
438.30	40750.60
438.67	41177.98
439.03	41340.18
439.40	41554.11
439.76	41459.08
440.13	41289.16
440.49	41174.47
440.86	40915.84
441.22	40604.32
441.59	40187.23
441.95	39749.55
442.32	39045.99
442.68	38419.43
443.05	37611.94
443.41	36931.78
443.78	36089.66
444.14	35273.04
444.51	34263.80
444.87	33518.11
445.24	32548.66
445.60	31544.10
445.96	30611.16
446.33	29860.09
446.69	28834.70
447.06	28047.11
447.42	27312.41
447.79	26474.97
448.15	25741.91
448.51	25023.37
448.88	24337.83
449.24	23563.34
449.61	23076.75
449.97	22491.61
450.33	21922.39
450.70	21243.87
451.06	20796.13
451.43	20149.44
451.79	19677.82
452.15	19230.78
452.52	18833.12
452.88	18389.59
453.24	17980.70
453.61	17523.59
453.97	17062.97
454.34	16553.91
454.70	16113.65
455.06	15664.97
455.43	15111.90
455.79	14534.26
456.15	14075.51
456.52	13558.26
456.88	13106.30
457.24	12703.26
457.61	12372.31
457.97	12029.42
458.33	11636.91
458.70	11228.49
459.06	10801.57
459.42	10452.83
459.79	10075.30
460.15	9763.08
460.51	9445.00
460.88	9154.07
461.24	8816.56
461.60	8545.30
461.96	8254.37
462.33	8010.72
462.69	7758.41
463.05	7499.54
463.42	7284.22
463.78	7075.91
464.14	6893.81
464.50	6737.93
464.87	6568.71
465.23	6360.17
465.59	6185.33
465.95	6004.64
466.32	5819.51
466.68	5664.10
467.04	5508.22
467.40	5369.19
467.77	5233.91
468.13	5100.96
468.49	4992.83
468.85	4890.32
469.22	4797.86
469.58	4692.54
469.94	4595.41
470.30	4517.00
470.66	4436.25
471.03	4333.50
471.39	4268.43
471.75	4176.22
472.11	4079.55
472.47	4008.87
472.84	3931.63
473.20	3840.59
473.56	3774.82
473.92	3685.41
474.28	3609.81
474.65	3548.95
475.01	3477.80
475.37	3418.82
475.73	3373.41
476.09	3300.62
476.45	3241.41
476.81	3174.23
477.18	3122.98
477.54	3056.04
477.90	2991.91
478.26	2923.56
478.62	2865.99
478.98	2809.81
479.34	2780.79
479.71	2755.75
480.07	2727.89
480.43	2708.70
480.79	2675.70
481.15	2639.89
481.51	2613.91
481.87	2586.53
482.23	2542.76
482.59	2492.44
482.96	2436.26
483.32	2392.96
483.68	2349.66
484.04	2325.09
484.40	2298.87
484.76	2268.68
485.12	2243.40
485.48	2207.59
485.84	2175.76
486.20	2151.19
486.56	2123.10
486.92	2092.67
487.28	2072.08
487.64	2047.27
488.00	2021.52
488.37	2004.67
488.73	1977.99
489.09	1967.92
489.45	1938.90
489.81	1916.66
490.17	1894.66
490.53	1867.98
490.89	1828.43
491.25	1810.64
491.61	1792.15
491.97	1779.04
492.33	1757.74
492.69	1739.95
493.05	1730.36
493.41	1712.80
493.77	1690.10
494.13	1671.84
494.49	1662.95
494.85	1646.33
495.21	1623.16
495.57	1614.27
495.93	1614.03
496.29	1589.46
496.64	1564.41
497.00	1553.88
497.36	1527.43
497.72	1510.11
498.08	1511.05
498.44	1508.24
498.80	1495.60
499.16	1489.52
499.52	1479.22
499.88	1460.03
500.24	1445.51
500.60	1440.60
500.96	1432.17
501.32	1418.60
501.68	1414.85
502.03	1410.87
502.39	1393.09
502.75	1379.98
503.11	1361.02
503.47	1346.51
503.83	1336.68
504.19	1338.08
504.55	1328.49
504.91	1329.66
505.26	1327.55
505.62	1321.23
505.98	1326.85
506.34	1324.98
506.70	1324.51
507.06	1316.32
507.42	1306.72
507.78	1280.04
508.13	1281.44
508.49	1275.36
508.85	1280.51
509.21	1271.85
509.57	1274.42
509.93	1268.57
510.28	1267.17
510.64	1263.19
511.00	1252.19
511.36	1234.63
511.72	1215.44
512.07	1201.87
512.43	1186.89
512.79	1188.52
513.15	1207.95
513.51	1216.38
513.86	1216.38
514.22	1225.50
514.58	1216.61
514.94	1205.38
515.30	1202.80
515.65	1201.87
516.01	1191.10
516.37	1197.65
516.73	1199.29
517.08	1193.91
517.44	1191.10
517.80	1193.21
518.16	1192.50
518.51	1188.52
518.87	1193.44
519.23	1193.67
519.59	1182.44
519.94	1170.27
520.30	1159.50
520.66	1160.67
521.01	1157.39
521.37	1159.27
521.73	1163.95
522.09	1164.18
522.44	1158.80
522.80	1159.74
523.16	1164.65
523.51	1179.63
523.87	1178.46
524.23	1179.16
524.58	1175.18
524.94	1175.42
525.30	1155.99
525.65	1148.97
526.01	1148.50
526.37	1147.56
526.72	1133.29
527.08	1131.41
527.44	1140.07
527.79	1133.99
528.15	1129.54
528.51	1140.78
528.86	1140.07
529.22	1133.52
529.58	1132.35
529.93	1141.71
530.29	1130.01
530.65	1135.39
531.00	1135.63
531.36	1141.01
531.71	1130.95
532.07	1146.16
532.43	1143.59
532.78	1150.84
533.14	1150.61
533.49	1152.48
533.85	1144.99
534.21	1148.27
534.56	1141.48
534.92	1136.56
535.27	1136.56
535.63	1122.29
535.98	1121.35
536.34	1114.56
536.69	1111.29
537.05	1106.61
537.41	1111.05
537.76	1111.52
538.12	1121.82
538.47	1136.80
538.83	1136.10
539.18	1137.73
539.54	1133.05
539.89	1134.69
540.25	1110.58
540.60	1108.48
540.96	1109.41
541.31	1111.05
541.67	1102.16
542.02	1117.84
542.38	1129.31
542.73	1128.37
543.09	1126.50
543.44	1125.80
543.80	1120.18
544.15	1122.52
544.51	1132.12
544.86	1128.14
545.22	1136.33
545.57	1141.25
545.93	1133.29
546.28	1128.61
546.64	1136.10
546.99	1129.54
547.35	1121.82
547.70	1122.29
548.05	1122.75
548.41	1113.39
548.76	1111.52
549.12	1124.86
549.47	1115.73
549.83	1111.29
550.18	1114.33
550.53	1116.90
550.89	1102.39
551.24	1108.01
551.60	1106.37
551.95	1113.16
552.30	1105.90
552.66	1109.41
553.01	1120.65
553.37	1132.59
553.72	1120.18
554.07	1134.22
554.43	1127.44
554.78	1110.82
555.13	1098.65
555.49	1108.71
555.84	1100.52
556.19	1102.16
556.55	1103.56
556.90	1103.33
557.26	1099.82
557.61	1108.01
557.96	1112.69
558.32	1116.44
558.67	1114.09
559.02	1126.03
559.37	1124.39
559.73	1128.61
560.08	1142.42
560.43	1152.01
560.79	1148.97
561.14	1151.31
561.49	1150.61
561.85	1144.99
562.20	1141.95
562.55	1135.63
562.90	1120.41
563.26	1112.22
563.61	1098.65
563.96	1094.43
564.32	1086.48
564.67	1091.63
565.02	1100.29
565.37	1106.37
565.73	1114.80
566.08	1123.69
566.43	1116.44
566.78	1106.14
567.14	1095.60
567.49	1090.22
567.84	1088.58
568.19	1092.33
568.54	1104.03
568.90	1118.78
569.25	1109.41
569.60	1102.63
569.95	1109.41
570.31	1109.18
570.66	1101.22
571.01	1108.71
571.36	1111.05
571.71	1109.88
572.06	1099.35
572.42	1100.99
572.77	1109.41
573.12	1116.67
573.47	1121.58
573.82	1125.80
574.18	1129.31
574.53	1117.61
574.88	1111.75
575.23	1095.14
575.58	1101.22
575.93	1096.54
576.28	1094.67
576.64	1100.29
576.99	1110.12
577.34	1109.18
577.69	1111.05
578.04	1122.52
578.39	1117.84
578.74	1120.65
579.09	1105.67
579.44	1101.22
579.80	1093.26
580.15	1093.73
580.50	1093.97
580.85	1101.92
581.20	1100.05
581.55	1105.20
581.90	1099.82
582.25	1100.29
582.60	1101.69
582.95	1107.31
583.30	1103.33
583.65	1107.07
584.00	1107.78
584.35	1110.58
584.71	1107.54
585.06	1108.01
585.41	1104.97
585.76	1101.22
586.11	1093.03
586.46	1093.97
586.81	1080.39
587.16	1078.99
587.51	1073.60
587.86	1076.18
588.21	1081.80
588.56	1091.16
588.91	1097.71
589.26	1093.03
589.61	1093.03
589.96	1087.65
590.31	1093.26
590.66	1091.63
591.01	1104.73
591.36	1107.07
591.71	1104.26
592.06	1096.54
592.41	1096.31
592.76	1090.69
593.10	1089.52
593.45	1087.65
593.80	1093.26
594.15	1094.67
594.50	1105.44
594.85	1114.33
595.20	1121.82
595.55	1118.07
595.90	1119.24
596.25	1113.86
596.60	1104.03
596.95	1098.88
597.30	1102.63
597.64	1143.82
597.99	1136.33
598.34	1145.46
598.69	1144.52
599.04	1149.44
599.39	1100.75
599.74	1108.01
600.09	1107.31
600.44	1113.86
600.78	1104.73
601.13	1105.44
601.48	1107.54
601.83	1100.75
602.18	1087.88
602.53	1082.97
602.88	1082.50
603.22	1078.28
603.57	1078.99
603.92	1089.52
604.27	1098.88
604.62	1096.31
604.97	1089.05
605.31	1082.97
605.66	1079.46
606.01	1085.07
606.36	1095.60
606.71	1108.71
607.05	1128.14
607.40	1129.07
607.75	1117.84
608.10	1117.61
608.44	1103.80
608.79	1078.52
609.14	1075.01
609.49	1079.22
609.84	1081.56
610.18	1091.86
610.53	1106.14
610.88	1110.35
611.23	1118.31
611.57	1106.84
611.92	1099.82
612.27	1095.37
612.62	1097.48
612.96	1086.24
613.31	1087.18
613.66	1091.86
614.00	1097.01
614.35	1100.52
614.70	1104.50
615.05	1104.97
615.39	1093.03
615.74	1086.94
616.09	1089.05
616.43	1091.63
616.78	1090.22
617.13	1100.75
617.47	1099.12
617.82	1087.88
618.17	1087.41
618.51	1092.80
618.86	1085.07
619.21	1093.73
619.55	1099.35
619.90	1097.01
620.25	1090.92
620.59	1100.99
620.94	1104.03
621.29	1092.80
621.63	1097.71
621.98	1098.88
622.32	1104.03
622.67	1088.12
623.02	1098.41
623.36	1089.52
623.71	1088.12
624.05	1083.43
624.40	1084.37
624.75	1083.90
625.09	1082.73
625.44	1089.75
625.78	1081.56
626.13	1092.09
626.48	1095.84
626.82	1094.67
627.17	1092.09
627.51	1097.01
627.86	1094.90
628.20	1086.48
628.55	1094.67
628.89	1091.39
629.24	1093.26
629.58	1082.97
629.93	1089.99
630.28	1081.33
630.62	1085.31
630.97	1082.97
631.31	1096.54
631.66	1089.99
632.00	1087.18
632.35	1078.05
632.69	1082.03
633.04	1079.22
633.38	1089.75
633.73	1096.54
634.07	1102.86
634.42	1103.33
634.76	1099.35
635.11	1093.97
635.45	1098.65
635.79	1097.71
636.14	1094.90
636.48	1100.05
636.83	1106.84
637.17	1106.37
637.52	1113.86
637.86	1111.52
638.21	1105.44
638.55	1105.44
638.89	1096.78
639.24	1086.48
639.58	1089.52
639.93	1089.99
640.27	1080.63
640.61	1088.35
640.96	1093.03
641.30	1087.65
641.65	1081.33
641.99	1082.73
642.33	1079.69
642.68	1071.03
643.02	1077.82
643.37	1086.01
643.71	1086.94
644.05	1094.67
644.40	1100.29
644.74	1106.61
645.08	1101.46
645.43	1110.58
645.77	1104.50
646.11	1107.54
646.46	1089.99
646.80	1095.14
647.14	1076.41
647.49	1075.48
647.83	1070.09
648.17	1078.52
648.52	1063.07
648.86	1069.39
649.20	1070.33
649.55	1080.86
649.89	1078.99
650.23	1095.84
650.57	1088.82
650.92	1089.99
651.26	1083.90
651.60	1086.94
651.95	1087.41
652.29	1104.03
652.63	1104.73
652.97	1094.67
653.32	1088.82
653.66	1080.86
654.00	1075.01
654.34	1067.99
654.69	1075.01
655.03	1076.88
655.37	1084.14
655.71	1072.67
656.05	1075.01
656.40	1087.65
656.74	1087.65
657.08	1082.50
657.42	1090.46
657.76	1093.97
658.11	1083.20
658.45	1083.67
658.79	1083.90
659.13	1090.46
659.47	1092.80
659.82	1092.56
660.16	1084.60
660.50	1089.99
660.84	1082.26
661.18	1071.50
661.52	1080.39
661.87	1089.75
662.21	1084.84
662.55	1084.84
662.89	1090.46
663.23	1089.52
663.57	1086.01
663.91	1087.18
664.25	1088.58
664.60	1098.18
664.94	1096.54
665.28	1101.22
665.62	1107.31
665.96	1103.56
666.30	1100.99
666.64	1093.03
666.98	1093.97
667.32	1083.20
667.66	1093.97
668.01	1091.39
668.35	1091.16
668.69	1097.95
669.03	1112.69
669.37	1109.88
669.71	1113.39
670.05	1117.84
670.39	1113.63
670.73	1108.01
671.07	1094.67
671.41	1086.01
671.75	1092.09
672.09	1089.52
672.43	1082.26
672.77	1095.84
673.11	1091.86
673.45	1088.35
673.79	1077.11
674.13	1077.58
674.47	1075.24
674.81	1083.67
675.15	1080.39
675.49	1099.58
675.83	1099.82
676.17	1093.97
676.51	1091.86
676.85	1089.29
677.19	1078.52
677.53	1077.58
677.87	1084.37
678.21	1087.18
678.55	1090.69
678.89	1088.58
679.23	1095.60
679.57	1089.29
679.90	1091.16
680.24	1090.69
680.58	1094.67
680.92	1089.75
681.26	1100.05
681.60	1103.80
681.94	1103.33
682.28	1105.67
682.62	1103.33
682.96	1097.24
683.29	1089.52
683.63	1085.77
683.97	1079.46
684.31	1079.46
684.65	1083.43
684.99	1084.14
685.33	1088.35
685.67	1082.97
686.00	1095.84
686.34	1090.69
686.68	1085.31
687.02	1079.92
687.36	1090.92
687.70	1071.97
688.03	1075.01
688.37	1073.60
688.71	1077.11
689.05	1075.24
689.39	1086.24
689.72	1080.16
690.06	1082.50
690.40	1080.86
690.74	1084.60
691.08	1088.58
691.41	1100.99
691.75	1088.12
692.09	1086.71
692.43	1085.07
692.76	1078.75
693.10	1070.33
693.44	1081.09
693.78	1089.75
694.11	1080.63
694.45	1074.31
694.79	1067.52
695.13	1064.94
695.46	1060.26
695.80	1064.71
696.14	1074.07
696.48	1073.37
696.81	1080.16
697.15	1079.92
697.49	1071.73
697.82	1067.99
698.16	1073.37
698.50	1076.18
698.83	1077.82
699.17	1086.24
699.51	1081.80
699.84	1084.84
700.18	1078.28
700.52	1071.26
700.85	1068.92
701.19	1086.48
701.53	1082.73
701.86	1089.29
702.20	1094.20
702.54	1099.12
702.87	1092.80
703.21	1093.50
703.55	1096.07
703.88	1098.41
704.22	1085.07
704.55	1078.75
704.89	1084.84
705.23	1073.14
705.56	1069.39
705.90	1077.82
706.23	1084.14
706.57	1070.80
706.91	1075.71
707.24	1084.37
707.58	1082.73
707.91	1075.01
708.25	1081.09
708.58	1079.69
708.92	1075.94
709.26	1079.22
709.59	1090.46
709.93	1086.24
710.26	1086.01
710.60	1082.03
710.93	1080.86
711.27	1071.50
711.60	1076.41
711.94	1077.35
712.27	1077.11
712.61	1081.80
712.94	1077.58
713.28	1080.86
713.61	1084.60
713.95	1082.50
714.28	1080.39
714.62	1083.20
714.95	1079.92
715.29	1071.50
715.62	1075.24
715.96	1079.22
716.29	1085.31
716.63	1092.33
716.96	1100.05
717.29	1092.09
717.63	1080.63
717.96	1076.41
718.30	1075.01
718.63	1075.94
718.97	1077.11
719.30	1088.12
719.63	1082.50
719.97	1084.60
720.30	1087.18
720.64	1096.54
720.97	1098.41
721.30	1106.37
721.64	1111.99
721.97	1110.12
722.31	1109.88
722.64	1107.07
722.97	1099.82
723.31	1086.48
723.64	1078.99
723.97	1071.26
724.31	1066.11
724.64	1067.75
724.98	1066.35
725.31	1065.65
725.64	1069.39
725.98	1073.84
726.31	1079.46
726.64	1087.18
726.97	1086.01
727.31	1086.01
727.64	1082.26
727.97	1084.60
728.31	1085.77
728.64	1086.48
728.97	1090.46
729.31	1089.75
729.64	1075.48
729.97	1070.80
730.30	1073.60
730.64	1074.77
730.97	1073.37
731.30	1078.75
731.63	1080.16
731.97	1077.35
732.30	1073.14
732.63	1076.88
732.96	1091.39
733.30	1096.78
733.63	1101.69
733.96	1107.31
734.29	1101.46
734.63	1101.92
734.96	1104.97
735.29	1102.39
735.62	1094.90
735.95	1107.31
736.29	1093.50
736.62	1079.69
736.95	1086.71
737.28	1084.84
737.61	1076.18
737.94	1079.69
738.28	1078.05
738.61	1078.52
738.94	1081.80
739.27	1076.88
739.60	1075.24
739.93	1085.07
740.27	1082.03
740.60	1082.73
740.93	1092.56
741.26	1096.07
741.59	1094.43
741.92	1092.56
742.25	1086.48
742.58	1083.67
742.91	1082.50
743.25	1083.20
743.58	1080.63
743.91	1088.12
744.24	1083.43
744.57	1079.46
744.90	1082.97
745.23	1092.09
745.56	1083.90
745.89	1076.65
746.22	1084.84
746.55	1084.14
746.88	1080.86
747.21	1092.80
747.54	1107.78
747.87	1100.52
748.20	1098.88
748.53	1090.22
748.87	1082.73
749.20	1079.46
749.53	1083.67
749.86	1084.60
750.19	1093.26
750.52	1093.50
750.85	1088.12
751.18	1078.52
751.51	1073.14
751.84	1067.05
752.16	1066.82
752.49	1063.54
752.82	1067.28
753.15	1060.73
753.48	1069.39
753.81	1065.65
754.14	1070.33
754.47	1077.82
754.80	1077.35
755.13	1067.28
755.46	1070.09
755.79	1069.86
756.12	1071.03
756.45	1076.88
756.78	1082.26
757.11	1078.28
757.43	1082.97
757.76	1086.24
758.09	1078.52
758.42	1080.86
758.75	1087.88
759.08	1088.82
759.41	1072.43
759.74	1082.50
760.07	1083.20
760.39	1081.80
760.72	1078.99
761.05	1080.39
761.38	1076.18
761.71	1078.28
762.04	1077.11
762.36	1079.69
762.69	1087.41
763.02	1083.20
763.35	1083.90
763.68	1091.86
764.01	1090.22
764.33	1093.03
764.66	1107.78
764.99	1109.41
765.32	1105.20
765.65	1104.03
765.97	1097.71
766.30	1083.90
766.63	1077.11
766.96	1081.80
767.28	1077.58
767.61	1084.84
767.94	1091.63
768.27	1076.65
768.59	1059.79
768.92	1066.82
769.25	1055.35
769.58	1049.03
769.90	1066.11
770.23	1072.67
770.56	1067.99
770.89	1074.54
771.21	1075.71
771.54	1071.03
771.87	1081.80
772.19	1089.52
772.52	1082.97
772.85	1081.09
773.17	1079.22
773.50	1075.24
773.83	1067.05
774.15	1078.28
774.48	1084.14
774.81	1086.94
775.13	1087.18
775.46	1087.65
775.79	1078.28
776.11	1079.22
776.44	1078.75
776.77	1072.43
777.09	1079.69
777.42	1088.58
777.74	1086.94
778.07	1077.35
778.40	1080.16
778.72	1085.54
779.05	1079.92
779.37	1076.88
779.70	1090.46
780.03	1095.84
780.35	1089.52
780.68	1086.94
781.00	1085.77
781.33	1077.82
781.65	1068.92
781.98	1057.45
782.31	1060.50
782.63	1058.16
782.96	1069.62
783.28	1070.09
783.61	1079.46
783.93	1074.77
784.26	1084.60
784.58	1072.90
784.91	1072.67
785.23	1074.31
785.56	1080.86
785.88	1075.24
786.21	1078.52
786.53	1070.33
786.86	1060.96
787.18	1062.84
787.51	1061.90
787.83	1057.45
788.16	1076.18
788.48	1093.26
788.81	1085.77
789.13	1090.69
789.46	1095.14
789.78	1093.73
790.10	1089.99
790.43	1087.65
790.75	1083.43
791.08	1092.33
791.40	1084.37
791.73	1081.56
792.05	1085.77
792.37	1089.05
792.70	1074.54
793.02	1078.05
793.35	1077.11
793.67	1085.07
793.99	1082.03
794.32	1082.26
794.64	1083.20
794.96	1077.82
795.29	1071.73
795.61	1078.28
795.93	1093.50
796.26	1088.58
796.58	1091.86
796.91	1087.88
797.23	1074.54
797.55	1064.48
797.87	1072.67
798.20	1065.41
798.52	1075.24
798.84	1085.07
799.17	1086.71
799.49	1080.86
799.81	1085.54
800.14	1088.12
800.46	1088.12
800.78	1092.80
801.10	1092.80
801.43	1096.54
801.75	1101.69
802.07	1098.18
802.40	1089.29
802.72	1082.73
803.04	1082.03
803.36	1068.45
803.69	1070.09
804.01	1073.60
804.33	1084.37
804.65	1075.71
804.97	1076.18
805.30	1076.18
805.62	1071.73
805.94	1063.54
806.26	1071.73
806.58	1070.56
806.91	1071.50
807.23	1071.73
807.55	1071.50
807.87	1068.45
808.19	1075.71
808.52	1078.75
808.84	1082.50
809.16	1082.26
809.48	1085.31
809.80	1087.88
810.12	1092.09
810.44	1080.63
810.77	1077.35
811.09	1075.48
811.41	1062.37
811.73	1052.77
812.05	1073.84
812.37	1076.18
812.69	1074.77
813.01	1081.09
813.33	1085.07
813.66	1073.37
813.98	1079.69
814.30	1072.90
814.62	1071.26
814.94	1067.05
815.26	1069.16
815.58	1079.69
815.90	1085.54
816.22	1081.56
816.54	1081.33
816.86	1078.99
817.18	1070.09
817.50	1067.99
817.82	1065.65
818.14	1062.60
818.46	1064.24
818.78	1066.82
819.10	1064.71
819.42	1060.96
819.74	1070.33
820.06	1078.75
820.38	1070.80
820.70	1081.56
821.02	1095.37
821.34	1092.09
821.66	1083.67
821.98	1094.20
822.30	1098.41
822.62	1092.80
822.94	1091.86
823.26	1095.37
823.58	1092.33
823.90	1087.88
824.22	1089.29
824.54	1092.56
824.86	1094.67
825.18	1085.31
825.50	1082.50
825.81	1082.26
826.13	1076.88
826.45	1071.73
826.77	1078.99
827.09	1076.41
827.41	1079.69
827.73	1083.20
828.05	1081.33
828.36	1089.29
828.68	1094.90
829.00	1089.99
829.32	1086.24
829.64	1091.16
829.96	1085.07
830.28	1083.90
830.59	1083.67
830.91	1089.52
831.23	1083.20
831.55	1071.73
831.87	1068.45
832.19	1070.56
832.50	1066.35
832.82	1070.09
833.14	1077.35
833.46	1071.50
833.78	1073.14
834.09	1071.26
834.41	1070.33
834.73	1070.56
835.05	1075.01
835.36	1071.97
835.68	1074.54
836.00	1083.20
836.32	1075.94
836.63	1081.33
836.95	1080.63
837.27	1077.11
837.59	1069.39
837.90	1082.26
838.22	1082.03
838.54	1081.56
838.85	1086.48
839.17	1090.92
839.49	1085.07
839.80	1077.35
840.12	1079.69
840.44	1084.84
840.76	1073.37
841.07	1067.28
841.39	1070.33
841.71	1073.37
842.02	1071.03
842.34	1074.31
842.65	1086.24
842.97	1089.99
843.29	1086.24
843.60	1082.50
843.92	1088.58
844.24	1085.07
844.55	1081.09
844.87	1083.90
845.18	1091.86
845.50	1094.67
845.82	1091.63
846.13	1099.82
846.45	1089.75
846.76	1078.99
847.08	1068.22
847.40	1067.28
847.71	1065.65
848.03	1077.35
848.34	1083.90
848.66	1095.84
848.97	1107.07
849.29	1102.86
849.60	1100.29
849.92	1093.03
850.24	1091.86
850.55	1090.22
850.87	1076.41
851.18	1075.94
851.50	1078.28
851.81	1066.35
852.13	1056.52
852.44	1080.86
852.76	1084.14
853.07	1085.77
853.39	1093.50
853.70	1090.92
854.01	1081.09
854.33	1076.88
854.64	1075.01
854.96	1074.31
855.27	1083.43
855.59	1083.20
855.90	1085.54
856.22	1081.09
856.53	1079.46
856.84	1066.82
857.16	1063.07
857.47	1063.07
857.79	1061.90
858.10	1065.88
858.41	1077.58
858.73	1086.48
859.04	1085.54
859.36	1097.24
859.67	1099.12
859.98	1094.90
860.30	1089.52
860.61	1084.14
860.92	1084.37
861.24	1082.73
861.55	1086.24
861.87	1089.29
862.18	1089.99
862.49	1090.69
862.81	1079.22
863.12	1071.03
863.43	1062.37
863.74	1068.92
864.06	1061.67
864.37	1070.80
864.68	1070.80
865.00	1074.54
865.31	1079.92
865.62	1077.58
865.94	1074.07
866.25	1075.01
866.56	1067.28
866.87	1064.01
867.19	1064.94
867.50	1069.16
867.81	1067.52
868.12	1078.52
868.44	1071.50
868.75	1072.90
869.06	1071.73
869.37	1072.20
869.68	1070.56
870.00	1066.11
870.31	1066.58
870.62	1067.28
870.93	1085.31
871.24	1095.37
871.56	1097.71
871.87	1096.54
872.18	1097.95
872.49	1078.52
872.80	1068.92
873.12	1070.09
873.43	1067.75
873.74	1059.79
874.05	1065.18
874.36	1064.94
874.67	1071.26
874.98	1075.94
875.29	1077.35
875.61	1076.88
875.92	1067.05
876.23	1064.71
876.54	1055.11
876.85	1058.39
877.16	1058.16
877.47	1062.37
877.78	1064.48
878.09	1072.43
878.40	1072.67
878.72	1073.37
879.03	1082.50
879.34	1084.14
879.65	1083.90
879.96	1084.37
880.27	1083.20
880.58	1078.75
880.89	1069.86
881.20	1076.41
881.51	1070.09
881.82	1069.86
882.13	1069.86
882.44	1072.43
882.75	1071.73
883.06	1075.71
883.37	1066.58
883.68	1065.18
883.99	1062.60
884.30	1054.18
884.61	1066.11
884.92	1072.90
885.23	1077.11
885.54	1080.86
885.85	1084.37
886.16	1072.43
886.47	1082.97
886.78	1079.92
887.08	1087.18
887.39	1090.22
887.70	1089.99
888.01	1084.14
888.32	1089.05
888.63	1082.50
888.94	1082.03
889.25	1079.69
889.56	1087.88
889.87	1078.05
890.17	1075.94
890.48	1077.35
890.79	1087.18
891.10	1089.75
891.41	1101.22
891.72	1105.90
892.03	1107.07
892.34	1104.26
892.64	1104.97
892.95	1102.16
893.26	1106.37
893.57	1108.71
893.88	1109.88
894.18	1091.86
894.49	1084.84
894.80	1074.54
895.11	1064.24
895.42	1066.58
895.72	1087.18
896.03	1089.29
896.34	1091.63
896.65	1097.01
896.96	1093.50
897.26	1076.65
897.57	1076.41
897.88	1067.28
898.19	1063.54
898.49	1062.84
898.80	1067.28
899.11	1064.71
899.41	1075.71
899.72	1075.01
900.03	1070.80
900.34	1059.79
900.64	1063.54
900.95	1067.52
901.26	1067.99
901.56	1075.71
901.87	1091.16
902.18	1081.33
902.48	1069.86
902.79	1071.26
903.10	1074.77
903.40	1075.48
903.71	1086.71
904.02	1097.48
904.32	1095.14
904.63	1090.92
904.94	1083.67
905.24	1076.18
905.55	1073.84
905.85	1074.54
906.16	1065.41
906.47	1065.88
906.77	1070.56
907.08	1069.86
907.38	1080.86
907.69	1085.07
908.00	1094.20
908.30	1098.65
908.61	1091.63
908.91	1083.67
909.22	1086.48
909.52	1074.07
909.83	1070.56
910.14	1087.41
910.44	1086.01
910.75	1085.77
911.05	1093.73
911.36	1094.20
911.66	1072.90
911.97	1068.22
912.27	1060.73
912.58	1061.67
912.88	1066.82
913.19	1068.92
913.49	1078.99
913.80	1082.26
914.10	1081.09
914.41	1083.43
914.71	1091.16
915.01	1082.03
915.32	1085.31
915.62	1087.88
915.93	1083.20
916.23	1081.33
916.54	1083.20
916.84	1082.03
917.15	1073.37
917.45	1067.28
917.75	1064.71
918.06	1071.03
918.36	1072.90
918.67	1078.05
918.97	1096.78
919.27	1104.73
919.58	1098.41
919.88	1103.56
920.18	1093.97
920.49	1078.99
920.79	1079.22
921.10	1082.50
921.40	1081.80
921.70	1089.05
922.01	1094.43
922.31	1093.50
922.61	1092.56
922.92	1078.05
923.22	1079.46
923.52	1072.20
923.82	1070.80
924.13	1078.52
924.43	1090.92
924.73	1094.43
925.04	1094.90
925.34	1090.22
925.64	1079.46
925.94	1071.50
926.25	1068.69
926.55	1067.99
926.85	1073.84
927.15	1078.28
927.46	1078.75
927.76	1073.37
928.06	1064.48
928.36	1055.11
928.67	1049.96
928.97	1052.77
929.27	1058.39
929.57	1073.14
929.87	1082.26
930.18	1085.07
930.48	1087.65
930.78	1081.33
931.08	1073.37
931.38	1077.35
931.69	1082.50
931.99	1075.94
932.29	1068.92
932.59	1073.60
932.89	1071.03
933.19	1070.56
933.49	1081.80
933.80	1095.37
934.10	1092.80
934.40	1091.39
934.70	1092.09
935.00	1097.48
935.30	1092.56
935.60	1095.60
935.90	1093.26
936.20	1085.31
936.50	1075.24
936.81	1083.20
937.11	1085.77
937.41	1090.22
937.71	1102.16
938.01	1101.22
938.31	1097.01
938.61	1093.03
938.91	1092.09
939.21	1081.33
939.51	1080.86
939.81	1082.26
940.11	1074.54
940.41	1078.99
940.71	1083.67
941.01	1074.77
941.31	1068.22
941.61	1072.67
941.91	1062.84
942.21	1067.99
942.51	1067.75
942.81	1082.97
943.11	1089.52
943.41	1096.07
943.71	1096.78
944.01	1100.05
944.31	1095.37
944.61	1084.60
944.90	1073.14
945.20	1061.90
945.50	1069.86
945.80	1058.86
946.10	1064.94
946.40	1071.26
946.70	1076.65
947.00	1077.58
947.30	1079.92
947.60	1081.33
947.89	1076.88
948.19	1076.41
948.49	1066.11
948.79	1067.52
949.09	1067.75
949.39	1067.75
949.69	1065.65
949.98	1071.26
950.28	1083.67
950.58	1078.99
950.88	1086.24
951.18	1094.67
951.48	1092.09
951.77	1076.18
952.07	1081.33
952.37	1071.97
952.67	1059.33
952.97	1062.84
953.26	1067.52
953.56	1072.43
953.86	1081.56
954.16	1082.50
954.45	1081.09
954.75	1082.03
955.05	1074.54
955.35	1071.97
955.64	1076.18
955.94	1089.29
956.24	1092.56
956.54	1090.22
956.83	1098.41
957.13	1099.58
957.43	1084.84
957.72	1083.67
958.02	1089.75
958.32	1077.58
958.61	1076.41
958.91	1071.97
959.21	1071.03
959.50	1075.94
959.80	1082.26
960.10	1085.77
960.39	1092.80
960.69	1088.58
960.99	1094.43
961.28	1084.84
961.58	1071.73
961.87	1078.99
962.17	1073.84
962.47	1054.18
962.76	1067.52
963.06	1079.69
963.36	1072.43
963.65	1077.82
963.95	1083.20
964.24	1078.28
964.54	1071.73
964.83	1080.16
965.13	1084.14
965.42	1082.73
965.72	1082.97
966.02	1087.88
966.31	1083.43
966.61	1076.41
966.90	1072.90
967.20	1059.79
967.49	1067.75
967.79	1064.48
968.08	1067.28
968.38	1081.56
968.67	1087.65
968.97	1077.58
969.26	1076.65
969.56	1075.01
969.85	1063.31
970.15	1078.52
970.44	1095.84
970.74	1101.22
971.03	1109.41
971.32	1118.54
971.62	1119.48
971.91	1108.71
972.21	1099.82
972.50	1094.90
972.80	1095.60
973.09	1084.60
973.38	1074.31
973.68	1090.22
973.97	1085.54
974.27	1080.16
974.56	1078.75
974.85	1082.26
975.15	1067.99
975.44	1072.90
975.73	1072.20
976.03	1076.18
976.32	1073.60
976.61	1079.69
976.91	1078.28
977.20	1078.52
977.49	1078.99
977.79	1087.18
978.08	1082.50
978.37	1086.94
978.67	1091.16
978.96	1083.20
979.25	1081.56
979.55	1082.73
979.84	1085.07
980.13	1078.52
980.42	1087.65
980.72	1090.69
981.01	1092.80
981.30	1090.22
981.59	1096.07
981.89	1092.56
982.18	1086.94
982.47	1079.46
982.76	1069.86
983.06	1068.45
983.35	1068.45
983.64	1073.37
983.93	1082.03
984.22	1092.09
984.52	1092.80
984.81	1094.43
985.10	1090.22
985.39	1089.29
985.68	1085.07
985.97	1078.52
986.27	1084.37
986.56	1089.05
986.85	1087.88
987.14	1086.48
987.43	1088.12
987.72	1083.43
988.01	1071.97
988.31	1071.26
988.60	1070.80
988.89	1061.90
989.18	1064.94
989.47	1074.54
989.76	1072.90
990.05	1074.77
990.34	1085.54
990.63	1085.54
990.92	1087.18
991.21	1088.58
991.51	1086.48
991.80	1091.63
992.09	1075.01
992.38	1067.75
992.67	1072.20
992.96	1084.37
993.25	1080.39
993.54	1092.80
993.83	1096.31
994.12	1093.26
994.41	1082.73
994.70	1087.41
994.99	1083.90
995.28	1073.84
995.57	1078.28
995.86	1082.73
996.15	1089.05
996.44	1097.24
996.73	1106.14
997.02	1096.78
997.31	1095.60
997.59	1084.37
997.88	1081.56
998.17	1087.65
998.46	1094.43
998.75	1090.22
999.04	1083.67
999.33	1071.03
999.62	1067.52
999.91	1073.60
1000.20	1074.54
1000.49	1083.67
1000.77	1091.39
1001.06	1086.24
1001.35	1080.63
1001.64	1078.28
1001.93	1077.82
1002.22	1084.37
1002.51	1079.46
1002.79	1081.09
1003.08	1081.33
1003.37	1072.67
1003.66	1070.33
1003.95	1075.01
1004.23	1071.50
1004.52	1080.63
1004.81	1085.54
1005.10	1083.43
1005.39	1092.56
1005.67	1091.86
1005.96	1090.69
1006.25	1090.69
1006.54	1089.29
1006.83	1078.75
1007.11	1080.39
1007.40	1081.80
1007.69	1082.97
1007.97	1079.46
1008.26	1079.46
1008.55	1079.69
1008.84	1078.52
1009.12	1084.37
1009.41	1100.52
1009.70	1101.92
1009.98	1103.33
1010.27	1096.31
1010.56	1089.52
1010.85	1085.54
1011.13	1086.24
1011.42	1084.60
1011.71	1095.84
1011.99	1103.33
1012.28	1099.58
1012.56	1099.12
1012.85	1096.07
1013.14	1081.09
1013.42	1078.99
1013.71	1071.73
1014.00	1076.65
1014.28	1077.11
1014.57	1094.20
1014.85	1088.35
1015.14	1096.78
1015.43	1093.50
1015.71	1087.88
1016.00	1074.07
1016.28	1072.43
1016.57	1060.26
1016.85	1055.35
1017.14	1058.39
1017.43	1058.16
1017.71	1064.01
1018.00	1068.22
1018.28	1080.63
1018.57	1087.88
1018.85	1101.22
1019.14	1109.18
1019.42	1103.09
1019.71	1097.01
1019.99	1095.84
1020.28	1070.80
1020.56	1064.01
1020.85	1071.03
1021.13	1077.35
1021.42	1075.48
1021.70	1090.69
1021.99	1089.75
1022.27	1095.14
1022.55	1094.20
1022.84	1094.20
>>>>>End Processed Spectral Data<<<<<
