SpectraSuite Data File
++++++++++++++++++++++++++++++++++++
Date: Mon Aug 26 10:24:39 PDT 2019
User: corrico
Dark Spectrum Present: No
Reference Spectrum Present: No
Number of Sampled Component Spectra: 1
Spectrometers: USB2+H06089
Integration Time (usec): 10000 (USB2+H06089)
Spectra Averaged: 2 (USB2+H06089)
Boxcar Smoothing: 2 (USB2+H06089)
Correct for Electrical Dark: No (USB2+H06089)
Strobe/Lamp Enabled: No (USB2+H06089)
Correct for Detector Non-linearity: No (USB2+H06089)
Correct for Stray Light: No (USB2+H06089)
Number of Pixels in Processed Spectrum: 2048
>>>>>Begin Processed Spectral Data<<<<<
339.70	1064.94
340.07	1064.94
340.45	1022.58
340.82	1002.45
341.19	977.17
341.57	939.96
341.94	934.34
342.31	920.06
342.69	909.53
343.06	902.98
343.43	909.30
343.81	894.08
344.18	901.81
344.55	894.79
344.93	894.55
345.30	895.25
345.67	907.19
346.04	906.02
346.42	926.85
346.79	935.98
347.16	957.28
347.54	972.02
347.91	988.88
348.28	995.20
348.65	1014.62
349.03	1025.39
349.40	1040.37
349.77	1047.39
350.14	1057.69
350.52	1057.69
350.89	1063.54
351.26	1070.33
351.63	1080.16
352.01	1085.07
352.38	1092.56
352.75	1086.24
353.12	1076.41
353.50	1077.82
353.87	1083.67
354.24	1088.58
354.61	1102.39
354.98	1115.03
355.36	1118.78
355.73	1117.37
356.10	1117.37
356.47	1105.67
356.84	1098.65
357.22	1100.52
357.59	1103.09
357.96	1104.97
358.33	1113.63
358.70	1116.20
359.08	1116.44
359.45	1104.73
359.82	1104.26
360.19	1101.22
360.56	1100.75
360.94	1099.12
361.31	1106.84
361.68	1103.09
362.05	1095.37
362.42	1091.16
362.79	1085.07
363.16	1089.05
363.54	1096.07
363.91	1104.50
364.28	1108.01
364.65	1110.58
365.02	1091.16
365.39	1085.54
365.76	1087.41
366.14	1083.20
366.51	1082.97
366.88	1096.78
367.25	1096.31
367.62	1087.65
367.99	1093.73
368.36	1093.03
368.73	1089.29
369.10	1084.60
369.48	1089.52
369.85	1084.84
370.22	1078.75
370.59	1078.52
370.96	1078.05
371.33	1074.31
371.70	1085.07
372.07	1090.69
372.44	1095.84
372.81	1092.09
373.18	1087.41
373.55	1080.63
373.93	1082.97
374.30	1071.97
374.67	1079.69
375.04	1088.58
375.41	1084.37
375.78	1075.71
376.15	1085.77
376.52	1093.26
376.89	1092.56
377.26	1093.73
377.63	1110.58
378.00	1110.35
378.37	1103.09
378.74	1100.52
379.11	1108.95
379.48	1100.75
379.85	1099.35
380.22	1097.24
380.59	1093.97
380.96	1087.88
381.33	1085.54
381.70	1093.03
382.07	1102.16
382.44	1109.41
382.81	1113.16
383.18	1126.50
383.55	1125.10
383.92	1123.22
384.29	1132.12
384.66	1133.29
385.03	1132.82
385.40	1130.24
385.77	1128.37
386.14	1118.54
386.51	1115.50
386.88	1109.88
387.25	1122.29
387.62	1128.84
387.99	1138.20
388.36	1141.95
388.73	1140.54
389.10	1132.59
389.46	1124.86
389.83	1117.61
390.20	1123.93
390.57	1126.50
390.94	1134.22
391.31	1143.12
391.68	1145.46
392.05	1138.44
392.42	1139.61
392.79	1127.67
393.16	1129.07
393.53	1134.46
393.89	1138.90
394.26	1134.93
394.63	1136.80
395.00	1133.52
395.37	1139.14
395.74	1132.35
396.11	1149.20
396.48	1155.99
396.84	1160.20
397.21	1160.44
397.58	1166.52
397.95	1160.20
398.32	1170.27
398.69	1172.37
399.06	1170.03
399.42	1181.27
399.79	1182.67
400.16	1180.10
400.53	1181.50
400.90	1186.89
401.27	1195.55
401.64	1216.38
402.00	1221.06
402.37	1233.70
402.74	1235.80
403.11	1242.59
403.48	1236.97
403.84	1253.12
404.21	1265.53
404.58	1289.17
404.95	1307.89
405.32	1333.87
405.68	1348.62
406.05	1372.72
406.42	1385.83
406.79	1407.36
407.16	1420.00
407.52	1445.05
407.89	1468.69
408.26	1504.26
408.63	1530.71
408.99	1575.65
409.36	1624.33
409.73	1677.93
410.10	1724.04
410.47	1781.85
410.83	1846.68
411.20	1917.37
411.57	1974.01
411.94	2053.82
412.30	2139.25
412.67	2220.47
413.04	2310.34
413.40	2406.77
413.77	2507.88
414.14	2620.00
414.51	2738.43
414.87	2865.05
415.24	3031.70
415.61	3205.83
415.97	3375.29
416.34	3565.10
416.71	3759.13
417.08	3966.97
417.44	4179.03
417.81	4417.06
418.18	4667.96
418.54	4940.17
418.91	5226.65
419.28	5500.96
419.64	5805.93
420.01	6121.44
420.38	6463.39
420.74	6787.55
421.11	7232.02
421.48	7645.83
421.84	8107.62
422.21	8566.83
422.58	9105.85
422.94	9588.71
423.31	10137.80
423.68	10676.35
424.04	11249.08
424.41	11862.77
424.77	12535.21
425.14	13217.94
425.51	13960.36
425.87	14798.97
426.24	15544.67
426.61	16434.07
426.97	17483.57
427.34	18476.42
427.70	19532.24
428.07	20646.10
428.44	21765.11
428.80	22778.80
429.17	23867.85
429.53	24931.39
429.90	26204.64
430.27	27287.14
430.63	28485.26
431.00	29920.24
431.36	31441.35
431.73	32734.26
432.09	34166.20
432.46	35520.20
432.83	36747.82
433.19	37934.47
433.56	39430.77
433.92	40923.10
434.29	42494.53
434.65	44045.37
435.02	45347.65
435.38	46645.24
435.75	47592.45
436.11	48702.57
436.48	49681.38
436.84	50757.56
437.21	51617.47
437.57	52590.90
437.94	53285.34
438.30	53830.21
438.67	54126.99
439.03	54232.32
439.40	54423.07
439.76	54293.64
440.13	54151.57
440.49	54161.17
440.86	53822.96
441.22	53381.30
441.59	52795.70
441.95	52098.69
442.32	51147.49
442.68	50409.05
443.05	49454.12
443.41	48640.78
443.78	47700.35
444.14	46798.54
444.51	45602.06
444.87	44694.17
445.24	43378.08
445.60	42248.78
445.96	40937.61
446.33	39971.90
446.69	38613.69
447.06	37720.78
447.42	36603.87
447.79	35544.08
448.15	34503.01
448.51	33574.75
448.88	32627.30
449.24	31604.49
449.61	30859.50
449.97	30012.92
450.33	29217.38
450.70	28251.44
451.06	27604.75
451.43	26853.20
451.79	26272.28
452.15	25701.19
452.52	25153.97
452.88	24605.82
453.24	24073.35
453.61	23418.23
453.97	22745.79
454.34	22119.00
454.70	21511.16
455.06	20843.64
455.43	20138.67
455.79	19383.61
456.15	18811.12
456.52	18096.09
456.88	17539.97
457.24	16958.12
457.61	16454.67
457.97	15878.19
458.33	15387.38
458.70	14803.65
459.06	14221.80
459.42	13763.52
459.79	13257.73
460.15	12795.01
460.51	12317.30
460.88	11930.88
461.24	11492.73
461.60	11143.29
461.96	10768.10
462.33	10423.81
462.69	10091.22
463.05	9811.53
463.42	9522.47
463.78	9228.26
464.14	8954.66
464.50	8731.13
464.87	8440.21
465.23	8122.13
465.59	7866.54
465.95	7642.32
466.32	7392.11
466.68	7193.87
467.04	7047.59
467.40	6887.73
467.77	6710.78
468.13	6541.33
468.49	6393.64
468.85	6245.95
469.22	6114.88
469.58	5977.73
469.94	5868.19
470.30	5709.03
470.66	5577.73
471.03	5438.23
471.39	5351.17
471.75	5213.54
472.11	5135.60
472.47	5058.37
472.84	4953.98
473.20	4799.50
473.56	4711.03
473.92	4586.28
474.28	4469.49
474.65	4366.97
475.01	4299.80
475.37	4207.35
475.73	4135.96
476.09	4034.38
476.45	3959.48
476.81	3886.46
477.18	3790.03
477.54	3710.69
477.90	3652.87
478.26	3583.83
478.62	3507.06
478.98	3441.29
479.34	3389.10
479.71	3320.28
480.07	3278.62
480.43	3233.22
480.79	3200.92
481.15	3140.06
481.51	3084.36
481.87	3032.40
482.23	2966.86
482.59	2898.75
482.96	2859.20
483.32	2819.41
483.68	2766.05
484.04	2745.92
484.40	2723.21
484.76	2690.21
485.12	2648.55
485.48	2621.63
485.84	2575.99
486.20	2542.99
486.56	2497.12
486.92	2476.99
487.28	2442.35
487.64	2412.86
488.00	2367.45
488.37	2338.43
488.73	2302.38
489.09	2258.15
489.45	2221.17
489.81	2190.27
490.17	2165.23
490.53	2134.33
490.89	2104.84
491.25	2080.74
491.61	2056.39
491.97	2017.78
492.33	2001.86
492.69	1996.95
493.05	1978.22
493.41	1955.99
493.77	1945.69
494.13	1916.66
494.49	1867.51
494.85	1838.49
495.21	1817.66
495.57	1790.04
495.93	1765.70
496.29	1756.81
496.64	1736.21
497.00	1718.19
497.36	1698.76
497.72	1680.50
498.08	1659.67
498.44	1651.25
498.80	1625.50
499.16	1602.80
499.52	1578.69
499.88	1564.41
500.24	1532.11
500.60	1519.71
500.96	1508.24
501.32	1497.71
501.68	1496.54
502.03	1488.11
502.39	1485.07
502.75	1479.45
503.11	1478.05
503.47	1465.64
503.83	1464.24
504.19	1448.56
504.55	1443.64
504.91	1423.51
505.26	1410.64
505.62	1393.55
505.98	1385.83
506.34	1364.30
506.70	1366.64
507.06	1357.28
507.42	1356.11
507.78	1349.55
508.13	1346.74
508.49	1328.25
508.85	1317.72
509.21	1302.51
509.57	1301.81
509.93	1289.64
510.28	1295.02
510.64	1293.61
511.00	1294.32
511.36	1294.55
511.72	1300.17
512.07	1295.72
512.43	1299.47
512.79	1306.96
513.15	1291.04
513.51	1283.78
513.86	1277.93
514.22	1265.29
514.58	1247.04
514.94	1243.76
515.30	1233.23
515.65	1226.91
516.01	1222.70
516.37	1219.42
516.73	1215.21
517.08	1224.10
517.44	1218.01
517.80	1212.40
518.16	1214.74
518.51	1217.08
518.87	1215.91
519.23	1220.12
519.59	1218.72
519.94	1208.65
520.30	1200.69
520.66	1202.10
521.01	1193.91
521.37	1192.27
521.73	1204.44
522.09	1198.35
522.44	1181.74
522.80	1182.67
523.16	1179.40
523.51	1172.61
523.87	1183.61
524.23	1185.48
524.58	1183.61
524.94	1181.50
525.30	1181.74
525.65	1177.06
526.01	1180.10
526.37	1176.35
526.72	1176.12
527.08	1170.27
527.44	1163.71
527.79	1167.46
528.15	1158.80
528.51	1166.76
528.86	1159.97
529.22	1153.88
529.58	1144.76
529.93	1148.27
530.29	1137.27
530.65	1147.33
531.00	1153.18
531.36	1141.71
531.71	1138.20
532.07	1140.31
532.43	1137.97
532.78	1139.84
533.14	1151.08
533.49	1156.22
533.85	1152.95
534.21	1152.48
534.56	1144.99
534.92	1146.39
535.27	1149.44
535.63	1145.93
535.98	1138.90
536.34	1145.46
536.69	1140.78
537.05	1145.69
537.41	1142.88
537.76	1146.16
538.12	1138.44
538.47	1130.71
538.83	1122.75
539.18	1134.46
539.54	1126.73
539.89	1134.22
540.25	1140.31
540.60	1140.31
540.96	1145.93
541.31	1157.39
541.67	1156.93
542.02	1153.65
542.38	1160.91
542.73	1146.63
543.09	1148.27
543.44	1148.97
543.80	1158.33
544.15	1152.71
544.51	1153.65
544.86	1147.80
545.22	1144.99
545.57	1134.46
545.93	1131.18
546.28	1133.52
546.64	1131.41
546.99	1134.69
547.35	1137.50
547.70	1134.93
548.05	1133.29
548.41	1135.63
548.76	1126.03
549.12	1119.71
549.47	1122.75
549.83	1113.16
550.18	1115.03
550.53	1118.31
550.89	1119.01
551.24	1109.65
551.60	1106.84
551.95	1106.84
552.30	1105.44
552.66	1111.05
553.01	1113.16
553.37	1130.01
553.72	1121.35
554.07	1126.03
554.43	1117.61
554.78	1120.65
555.13	1107.07
555.49	1106.84
555.84	1103.09
556.19	1106.14
556.55	1097.95
556.90	1097.95
557.26	1094.90
557.61	1085.31
557.96	1095.37
558.32	1111.75
558.67	1123.93
559.02	1125.10
559.37	1130.24
559.73	1123.69
560.08	1120.18
560.43	1117.84
560.79	1129.31
561.14	1138.44
561.49	1139.14
561.85	1133.05
562.20	1134.46
562.55	1131.65
562.90	1127.20
563.26	1131.88
563.61	1135.39
563.96	1122.52
564.32	1126.03
564.67	1115.73
565.02	1114.10
565.37	1112.46
565.73	1116.90
566.08	1113.16
566.43	1121.58
566.78	1119.95
567.14	1124.16
567.49	1122.05
567.84	1116.44
568.19	1116.20
568.54	1110.82
568.90	1100.05
569.25	1096.78
569.60	1087.41
569.95	1084.37
570.31	1085.07
570.66	1088.12
571.01	1097.48
571.36	1104.73
571.71	1112.22
572.06	1111.75
572.42	1108.95
572.77	1109.18
573.12	1113.86
573.47	1112.22
573.82	1106.61
574.18	1116.67
574.53	1104.50
574.88	1102.86
575.23	1104.97
575.58	1103.80
575.93	1093.97
576.28	1099.12
576.64	1102.63
576.99	1091.63
577.34	1101.69
577.69	1106.37
578.04	1111.52
578.39	1109.65
578.74	1114.33
579.09	1104.73
579.44	1109.41
579.80	1114.10
580.15	1116.44
580.50	1119.48
580.85	1123.22
581.20	1119.71
581.55	1116.44
581.90	1113.16
582.25	1107.07
582.60	1121.58
582.95	1116.20
583.30	1108.71
583.65	1105.44
584.00	1107.78
584.35	1094.20
584.71	1097.01
585.06	1111.29
585.41	1115.97
585.76	1125.33
586.11	1127.20
586.46	1126.50
586.81	1114.10
587.16	1105.67
587.51	1090.69
587.86	1093.50
588.21	1092.09
588.56	1095.60
588.91	1113.39
589.26	1126.27
589.61	1121.35
589.96	1124.86
590.31	1113.63
590.66	1101.69
591.01	1096.54
591.36	1096.78
591.71	1087.88
592.06	1095.60
592.41	1084.60
592.76	1074.54
593.10	1079.69
593.45	1086.01
593.80	1088.35
594.15	1099.12
594.50	1111.75
594.85	1112.69
595.20	1119.24
595.55	1112.92
595.90	1099.58
596.25	1092.80
596.60	1094.90
596.95	1092.33
597.30	1102.86
597.64	1168.86
597.99	1176.82
598.34	1166.52
598.69	1158.33
599.04	1146.63
599.39	1098.41
599.74	1085.31
600.09	1096.54
600.44	1103.80
600.78	1100.99
601.13	1097.24
601.48	1100.52
601.83	1085.54
602.18	1088.58
602.53	1093.73
602.88	1093.73
603.22	1097.48
603.57	1102.86
603.92	1093.26
604.27	1094.90
604.62	1090.46
604.97	1083.43
605.31	1092.56
605.66	1088.82
606.01	1092.80
606.36	1093.26
606.71	1097.95
607.05	1095.14
607.40	1104.03
607.75	1099.35
608.10	1100.29
608.44	1097.95
608.79	1099.82
609.14	1097.24
609.49	1086.24
609.84	1085.54
610.18	1093.26
610.53	1092.80
610.88	1096.54
611.23	1115.03
611.57	1117.37
611.92	1117.37
612.27	1118.07
612.62	1115.50
612.96	1114.80
613.31	1108.48
613.66	1103.09
614.00	1094.67
614.35	1103.80
614.70	1100.75
615.05	1113.39
615.39	1104.26
615.74	1098.65
616.09	1085.77
616.43	1085.07
616.78	1078.75
617.13	1100.29
617.47	1106.14
617.82	1102.39
618.17	1093.97
618.51	1083.90
618.86	1069.86
619.21	1075.94
619.55	1091.39
619.90	1103.56
620.25	1111.99
620.59	1114.80
620.94	1114.56
621.29	1109.41
621.63	1112.22
621.98	1104.03
622.32	1104.97
622.67	1088.12
623.02	1085.31
623.36	1080.63
623.71	1089.75
624.05	1080.16
624.40	1091.39
624.75	1097.01
625.09	1090.22
625.44	1098.18
625.78	1101.46
626.13	1099.35
626.48	1092.56
626.82	1098.41
627.17	1089.29
627.51	1085.07
627.86	1082.26
628.20	1077.35
628.55	1067.28
628.89	1060.03
629.24	1073.60
629.58	1079.92
629.93	1086.24
630.28	1092.56
630.62	1100.99
630.97	1096.31
631.31	1095.37
631.66	1098.41
632.00	1097.01
632.35	1095.14
632.69	1088.35
633.04	1083.43
633.38	1075.71
633.73	1074.31
634.07	1070.56
634.42	1078.75
634.76	1089.29
635.11	1086.01
635.45	1080.16
635.79	1085.31
636.14	1089.29
636.48	1085.77
636.83	1081.56
637.17	1087.88
637.52	1081.80
637.86	1090.92
638.21	1089.52
638.55	1104.73
638.89	1102.16
639.24	1100.99
639.58	1091.39
639.93	1090.92
640.27	1076.65
640.61	1085.77
640.96	1090.69
641.30	1090.22
641.65	1091.16
641.99	1097.01
642.33	1092.80
642.68	1108.01
643.02	1099.35
643.37	1098.18
643.71	1104.50
644.05	1106.14
644.40	1092.56
644.74	1101.22
645.08	1101.22
645.43	1108.01
645.77	1120.18
646.11	1121.82
646.46	1106.14
646.80	1103.80
647.14	1097.48
647.49	1079.22
647.83	1073.60
648.17	1080.39
648.52	1079.46
648.86	1069.39
649.20	1073.84
649.55	1078.99
649.89	1082.73
650.23	1085.54
650.57	1098.65
650.92	1094.90
651.26	1079.46
651.60	1072.90
651.95	1068.69
652.29	1057.92
652.63	1055.11
652.97	1066.82
653.32	1070.33
653.66	1071.73
654.00	1081.33
654.34	1096.54
654.69	1099.58
655.03	1101.22
655.37	1109.41
655.71	1104.97
656.05	1094.90
656.40	1099.58
656.74	1105.20
657.08	1101.22
657.42	1096.54
657.76	1089.29
658.11	1080.39
658.45	1071.97
658.79	1073.37
659.13	1075.48
659.47	1094.20
659.82	1097.24
660.16	1103.56
660.50	1095.37
660.84	1100.05
661.18	1089.05
661.52	1086.01
661.87	1082.73
662.21	1096.54
662.55	1090.69
662.89	1091.39
663.23	1090.92
663.57	1096.07
663.91	1089.75
664.25	1095.84
664.60	1097.95
664.94	1107.07
665.28	1104.97
665.62	1101.69
665.96	1099.82
666.30	1099.82
666.64	1101.46
666.98	1103.09
667.32	1107.07
667.66	1096.54
668.01	1095.14
668.35	1086.71
668.69	1085.31
669.03	1080.16
669.37	1078.52
669.71	1071.26
670.05	1067.99
670.39	1064.01
670.73	1070.33
671.07	1088.58
671.41	1092.56
671.75	1093.50
672.09	1102.39
672.43	1100.29
672.77	1089.05
673.11	1101.69
673.45	1109.41
673.79	1100.52
674.13	1105.44
674.47	1123.22
674.81	1116.44
675.15	1104.97
675.49	1106.37
675.83	1101.92
676.17	1107.31
676.51	1103.33
676.85	1101.46
677.19	1104.50
677.53	1113.39
677.87	1094.90
678.21	1098.41
678.55	1098.18
678.89	1093.50
679.23	1075.94
679.57	1076.41
679.90	1074.07
680.24	1077.82
680.58	1071.97
680.92	1073.60
681.26	1070.80
681.60	1072.90
681.94	1065.88
682.28	1079.92
682.62	1082.73
682.96	1090.22
683.29	1088.12
683.63	1095.84
683.97	1097.48
684.31	1095.37
684.65	1082.73
684.99	1076.65
685.33	1083.67
685.67	1074.77
686.00	1077.11
686.34	1083.90
686.68	1095.84
687.02	1092.33
687.36	1082.97
687.70	1085.54
688.03	1093.73
688.37	1085.77
688.71	1092.80
689.05	1096.78
689.39	1096.07
689.72	1084.37
690.06	1084.84
690.40	1079.92
690.74	1087.41
691.08	1087.41
691.41	1087.18
691.75	1084.84
692.09	1070.80
692.43	1071.26
692.76	1075.48
693.10	1076.65
693.44	1074.77
693.78	1081.09
694.11	1080.16
694.45	1076.18
694.79	1071.73
695.13	1073.60
695.46	1079.69
695.80	1080.39
696.14	1078.99
696.48	1078.75
696.81	1080.16
697.15	1078.75
697.49	1078.99
697.82	1071.50
698.16	1073.14
698.50	1075.94
698.83	1080.86
699.17	1075.01
699.51	1088.35
699.84	1093.97
700.18	1088.82
700.52	1089.99
700.85	1096.54
701.19	1092.33
701.53	1098.88
701.86	1101.46
702.20	1096.07
702.54	1095.84
702.87	1095.37
703.21	1089.29
703.55	1091.16
703.88	1090.46
704.22	1094.90
704.55	1100.29
704.89	1095.14
705.23	1089.75
705.56	1095.37
705.90	1087.18
706.23	1087.65
706.57	1086.24
706.91	1090.92
707.24	1091.39
707.58	1102.16
707.91	1094.67
708.25	1102.86
708.58	1105.67
708.92	1109.18
709.26	1107.07
709.59	1105.90
709.93	1104.03
710.26	1096.07
710.60	1085.07
710.93	1082.73
711.27	1091.39
711.60	1094.43
711.94	1095.84
712.27	1100.05
712.61	1099.12
712.94	1097.48
713.28	1095.60
713.61	1097.71
713.95	1086.48
714.28	1085.07
714.62	1072.43
714.95	1074.31
715.29	1072.20
715.62	1077.35
715.96	1072.20
716.29	1081.33
716.63	1072.43
716.96	1079.46
717.29	1091.39
717.63	1094.90
717.96	1085.77
718.30	1093.26
718.63	1090.46
718.97	1080.86
719.30	1078.52
719.63	1073.60
719.97	1062.84
720.30	1060.50
720.64	1061.67
720.97	1061.43
721.30	1067.52
721.64	1077.58
721.97	1077.58
722.31	1078.28
722.64	1078.99
722.97	1091.86
723.31	1097.71
723.64	1095.14
723.97	1093.03
724.31	1089.52
724.64	1086.48
724.98	1074.77
725.31	1071.50
725.64	1080.86
725.98	1088.12
726.31	1086.94
726.64	1085.77
726.97	1097.48
727.31	1086.71
727.64	1076.65
727.97	1076.65
728.31	1076.41
728.64	1074.77
728.97	1088.12
729.31	1088.35
729.64	1084.84
729.97	1097.01
730.30	1094.43
730.64	1074.77
730.97	1085.31
731.30	1080.86
731.63	1075.48
731.97	1068.92
732.30	1081.80
732.63	1073.60
732.96	1084.60
733.30	1077.35
733.63	1086.24
733.96	1079.92
734.29	1084.14
734.63	1083.90
734.96	1088.82
735.29	1086.71
735.62	1092.80
735.95	1089.52
736.29	1080.86
736.62	1080.16
736.95	1077.35
737.28	1071.97
737.61	1076.41
737.94	1081.80
738.28	1086.48
738.61	1088.35
738.94	1083.20
739.27	1084.84
739.60	1086.71
739.93	1075.94
740.27	1074.77
740.60	1083.90
740.93	1076.65
741.26	1077.35
741.59	1089.29
741.92	1091.63
742.25	1084.60
742.58	1082.97
742.91	1076.65
743.25	1070.56
743.58	1063.54
743.91	1067.05
744.24	1074.77
744.57	1086.48
744.90	1086.01
745.23	1092.09
745.56	1085.07
745.89	1086.71
746.22	1075.48
746.55	1080.63
746.88	1087.41
747.21	1092.09
747.54	1093.03
747.87	1094.20
748.20	1091.63
748.53	1082.50
748.87	1086.71
749.20	1076.18
749.53	1079.22
749.86	1080.39
750.19	1075.71
750.52	1073.14
750.85	1074.31
751.18	1069.62
751.51	1065.88
751.84	1075.24
752.16	1075.94
752.49	1088.82
752.82	1101.69
753.15	1100.75
753.48	1106.37
753.81	1108.01
754.14	1097.71
754.47	1090.69
754.80	1093.50
755.13	1079.92
755.46	1071.03
755.79	1071.50
756.12	1066.58
756.45	1068.45
756.78	1078.05
757.11	1090.69
757.43	1092.33
757.76	1094.67
758.09	1086.24
758.42	1079.22
758.75	1074.07
759.08	1080.39
759.41	1072.67
759.74	1072.67
760.07	1073.14
760.39	1070.56
760.72	1067.75
761.05	1073.60
761.38	1080.16
761.71	1081.80
762.04	1090.92
762.36	1086.24
762.69	1087.88
763.02	1081.09
763.35	1070.33
763.68	1053.94
764.01	1054.88
764.33	1051.84
764.66	1050.90
764.99	1064.24
765.32	1068.22
765.65	1068.22
765.97	1068.22
766.30	1078.99
766.63	1075.71
766.96	1086.01
767.28	1079.92
767.61	1086.71
767.94	1080.86
768.27	1071.03
768.59	1070.33
768.92	1060.03
769.25	1052.54
769.58	1056.99
769.90	1064.71
770.23	1052.30
770.56	1068.69
770.89	1064.94
771.21	1063.07
771.54	1060.26
771.87	1065.41
772.19	1060.96
772.52	1068.22
772.85	1069.16
773.17	1070.33
773.50	1071.03
773.83	1070.56
774.15	1074.07
774.48	1069.86
774.81	1075.01
775.13	1079.92
775.46	1084.84
775.79	1076.65
776.11	1076.41
776.44	1077.82
776.77	1074.07
777.09	1075.71
777.42	1071.26
777.74	1073.60
778.07	1075.71
778.40	1076.65
778.72	1073.14
779.05	1086.01
779.37	1086.01
779.70	1084.60
780.03	1089.05
780.35	1083.90
780.68	1072.67
781.00	1070.80
781.33	1070.56
781.65	1071.03
781.98	1074.07
782.31	1072.90
782.63	1080.16
782.96	1074.07
783.28	1073.84
783.61	1078.05
783.93	1092.80
784.26	1088.82
784.58	1091.86
784.91	1084.60
785.23	1083.20
785.56	1084.84
785.88	1088.82
786.21	1086.71
786.53	1095.14
786.86	1104.03
787.18	1095.14
787.51	1083.67
787.83	1096.54
788.16	1088.58
788.48	1093.03
788.81	1095.84
789.13	1113.63
789.46	1111.29
789.78	1115.50
790.10	1100.99
790.43	1095.37
790.75	1078.99
791.08	1079.92
791.40	1076.65
791.73	1093.97
792.05	1105.44
792.37	1111.99
792.70	1099.58
793.02	1100.99
793.35	1085.54
793.67	1077.35
793.99	1083.43
794.32	1100.29
794.64	1109.18
794.96	1109.65
795.29	1104.26
795.61	1103.80
795.93	1090.92
796.26	1078.28
796.58	1079.92
796.91	1085.54
797.23	1075.01
797.55	1077.35
797.87	1082.50
798.20	1080.63
798.52	1073.37
798.84	1076.41
799.17	1072.20
799.49	1065.65
799.81	1063.54
800.14	1072.90
800.46	1072.67
800.78	1064.71
801.10	1075.48
801.43	1072.20
801.75	1069.86
802.07	1069.62
802.40	1074.77
802.72	1071.50
803.04	1072.20
803.36	1076.65
803.69	1090.69
804.01	1090.22
804.33	1085.77
804.65	1088.35
804.97	1080.39
805.30	1071.03
805.62	1080.63
805.94	1087.88
806.26	1095.60
806.58	1087.18
806.91	1088.12
807.23	1089.75
807.55	1074.54
807.87	1066.58
808.19	1080.39
808.52	1068.69
808.84	1060.26
809.16	1075.48
809.48	1071.26
809.80	1077.82
810.12	1086.48
810.44	1082.03
810.77	1079.22
811.09	1092.56
811.41	1075.01
811.73	1070.33
812.05	1078.05
812.37	1075.48
812.69	1063.77
813.01	1071.73
813.33	1081.33
813.66	1086.48
813.98	1087.65
814.30	1086.48
814.62	1090.92
814.94	1084.84
815.26	1078.28
815.58	1082.73
815.90	1075.24
816.22	1073.84
816.54	1072.90
816.86	1077.11
817.18	1076.41
817.50	1087.65
817.82	1083.90
818.14	1082.26
818.46	1074.07
818.78	1069.86
819.10	1079.46
819.42	1088.35
819.74	1082.50
820.06	1082.03
820.38	1083.67
820.70	1086.01
821.02	1081.09
821.34	1086.24
821.66	1098.18
821.98	1100.99
822.30	1094.67
822.62	1087.18
822.94	1085.07
823.26	1075.94
823.58	1067.05
823.90	1060.73
824.22	1056.28
824.54	1060.03
824.86	1065.41
825.18	1066.35
825.50	1068.45
825.81	1077.58
826.13	1080.39
826.45	1076.18
826.77	1082.73
827.09	1087.18
827.41	1086.71
827.73	1080.63
828.05	1068.69
828.36	1064.94
828.68	1062.37
829.00	1064.94
829.32	1055.58
829.64	1057.45
829.96	1064.48
830.28	1058.86
830.59	1059.09
830.91	1070.56
831.23	1077.82
831.55	1069.86
831.87	1074.54
832.19	1078.05
832.50	1083.20
832.82	1095.37
833.14	1108.24
833.46	1111.05
833.78	1111.52
834.09	1112.46
834.41	1105.67
834.73	1095.60
835.05	1102.63
835.36	1095.84
835.68	1094.67
836.00	1086.01
836.32	1081.33
836.63	1074.07
836.95	1082.26
837.27	1080.16
837.59	1093.73
837.90	1101.46
838.22	1093.73
838.54	1087.41
838.85	1078.75
839.17	1075.01
839.49	1070.33
839.80	1067.99
840.12	1076.41
840.44	1092.80
840.76	1083.90
841.07	1092.80
841.39	1098.41
841.71	1091.16
842.02	1085.31
842.34	1084.84
842.65	1076.65
842.97	1070.56
843.29	1071.26
843.60	1068.45
843.92	1072.67
844.24	1071.50
844.55	1082.03
844.87	1076.88
845.18	1071.50
845.50	1077.58
845.82	1076.65
846.13	1064.94
846.45	1067.52
846.76	1070.09
847.08	1065.41
847.40	1063.07
847.71	1072.67
848.03	1077.11
848.34	1074.31
848.66	1070.80
848.97	1078.75
849.29	1083.67
849.60	1074.31
849.92	1081.09
850.24	1081.33
850.55	1078.52
850.87	1066.58
851.18	1072.20
851.50	1072.90
851.81	1084.84
852.13	1073.37
852.44	1082.73
852.76	1078.99
853.07	1076.18
853.39	1065.18
853.70	1071.26
854.01	1073.37
854.33	1075.94
854.64	1072.67
854.96	1084.37
855.27	1085.54
855.59	1082.03
855.90	1079.46
856.22	1070.09
856.53	1061.20
856.84	1063.77
857.16	1063.07
857.47	1067.28
857.79	1076.41
858.10	1075.24
858.41	1072.67
858.73	1065.88
859.04	1057.22
859.36	1064.24
859.67	1063.77
859.98	1064.71
860.30	1078.99
860.61	1091.86
860.92	1089.99
861.24	1086.01
861.55	1080.86
861.87	1072.43
862.18	1070.80
862.49	1067.75
862.81	1067.52
863.12	1071.26
863.43	1071.97
863.74	1060.50
864.06	1058.16
864.37	1056.52
864.68	1067.99
865.00	1064.94
865.31	1078.52
865.62	1082.50
865.94	1095.37
866.25	1084.37
866.56	1078.52
866.87	1063.31
867.19	1061.43
867.50	1059.09
867.81	1066.11
868.12	1072.20
868.44	1076.18
868.75	1080.86
869.06	1073.60
869.37	1076.18
869.68	1084.37
870.00	1079.46
870.31	1077.35
870.62	1080.16
870.93	1079.46
871.24	1075.94
871.56	1094.43
871.87	1092.80
872.18	1101.92
872.49	1089.75
872.80	1081.09
873.12	1068.69
873.43	1074.54
873.74	1073.84
874.05	1078.52
874.36	1091.86
874.67	1099.12
874.98	1088.82
875.29	1079.69
875.61	1088.58
875.92	1074.07
876.23	1064.24
876.54	1067.75
876.85	1069.62
877.16	1072.43
877.47	1080.16
877.78	1093.97
878.09	1083.67
878.40	1082.97
878.72	1074.07
879.03	1071.26
879.34	1066.35
879.65	1075.94
879.96	1073.60
880.27	1073.60
880.58	1081.56
880.89	1083.67
881.20	1089.52
881.51	1087.88
881.82	1089.05
882.13	1078.28
882.44	1065.65
882.75	1064.71
883.06	1069.16
883.37	1065.88
883.68	1075.71
883.99	1067.52
884.30	1060.73
884.61	1059.79
884.92	1060.73
885.23	1051.37
885.54	1067.28
885.85	1067.05
886.16	1063.31
886.47	1062.37
886.78	1067.75
887.08	1062.84
887.39	1064.01
887.70	1072.20
888.01	1075.24
888.32	1078.28
888.63	1085.77
888.94	1090.92
889.25	1091.86
889.56	1092.33
889.87	1084.14
890.17	1074.77
890.48	1071.73
890.79	1062.37
891.10	1064.71
891.41	1073.37
891.72	1080.39
892.03	1087.18
892.34	1097.01
892.64	1096.07
892.95	1086.71
893.26	1085.54
893.57	1082.03
893.88	1078.52
894.18	1071.26
894.49	1073.84
894.80	1072.90
895.11	1080.39
895.42	1075.71
895.72	1083.67
896.03	1080.63
896.34	1080.86
896.65	1070.09
896.96	1069.39
897.26	1065.18
897.57	1073.60
897.88	1082.97
898.19	1086.71
898.49	1088.82
898.80	1090.46
899.11	1089.75
899.41	1085.77
899.72	1089.99
900.03	1094.43
900.34	1094.90
900.64	1093.97
900.95	1091.39
901.26	1085.31
901.56	1077.82
901.87	1069.16
902.18	1068.69
902.48	1062.60
902.79	1067.28
903.10	1075.71
903.40	1076.18
903.71	1077.58
904.02	1084.14
904.32	1083.67
904.63	1079.22
904.94	1085.77
905.24	1091.86
905.55	1086.94
905.85	1081.56
906.16	1082.50
906.47	1086.94
906.77	1067.99
907.08	1071.50
907.38	1075.71
907.69	1075.01
908.00	1068.45
908.30	1084.60
908.61	1082.97
908.91	1085.07
909.22	1086.48
909.52	1086.94
909.83	1086.01
910.14	1077.11
910.44	1068.45
910.75	1060.26
911.05	1062.60
911.36	1056.05
911.66	1066.58
911.97	1075.48
912.27	1086.01
912.58	1088.58
912.88	1084.84
913.19	1082.97
913.49	1068.92
913.80	1062.37
914.10	1055.58
914.41	1057.69
914.71	1049.73
915.01	1055.82
915.32	1064.01
915.62	1064.71
915.93	1076.41
916.23	1083.43
916.54	1069.62
916.84	1071.50
917.15	1059.56
917.45	1051.13
917.75	1047.62
918.06	1063.54
918.36	1064.01
918.67	1079.22
918.97	1079.22
919.27	1079.22
919.58	1081.80
919.88	1078.28
920.18	1077.58
920.49	1075.94
920.79	1070.56
921.10	1062.60
921.40	1052.77
921.70	1053.48
922.01	1051.84
922.31	1069.16
922.61	1086.71
922.92	1094.67
923.22	1087.65
923.52	1089.29
923.82	1081.80
924.13	1063.07
924.43	1063.07
924.73	1079.22
925.04	1074.77
925.34	1079.92
925.64	1083.20
925.94	1081.33
926.25	1072.67
926.55	1076.65
926.85	1066.35
927.15	1061.67
927.46	1066.35
927.76	1068.45
928.06	1078.28
928.36	1082.26
928.67	1093.26
928.97	1090.92
929.27	1080.39
929.57	1070.09
929.87	1067.52
930.18	1059.33
930.48	1056.28
930.78	1067.99
931.08	1066.35
931.38	1079.92
931.69	1092.09
931.99	1099.35
932.29	1110.35
932.59	1118.54
932.89	1106.14
933.19	1110.82
933.49	1106.37
933.80	1084.37
934.10	1073.14
934.40	1070.09
934.70	1059.79
935.00	1046.69
935.30	1050.20
935.60	1055.58
935.90	1063.07
936.20	1060.50
936.50	1066.11
936.81	1067.75
937.11	1072.90
937.41	1070.33
937.71	1073.84
938.01	1080.86
938.31	1083.90
938.61	1080.63
938.91	1090.92
939.21	1080.63
939.51	1076.65
939.81	1071.50
940.11	1069.39
940.41	1059.33
940.71	1069.62
941.01	1078.05
941.31	1073.37
941.61	1082.97
941.91	1093.97
942.21	1087.65
942.51	1075.48
942.81	1093.26
943.11	1091.63
943.41	1079.46
943.71	1084.14
944.01	1088.82
944.31	1082.26
944.61	1066.35
944.90	1074.77
945.20	1066.58
945.50	1069.62
945.80	1061.90
946.10	1070.56
946.40	1064.48
946.70	1071.26
947.00	1072.67
947.30	1082.50
947.60	1090.22
947.89	1086.71
948.19	1082.03
948.49	1085.54
948.79	1081.33
949.09	1068.69
949.39	1067.99
949.69	1070.80
949.98	1064.01
950.28	1072.43
950.58	1082.50
950.88	1090.92
951.18	1091.86
951.48	1091.39
951.77	1078.99
952.07	1073.37
952.37	1067.52
952.67	1071.26
952.97	1067.52
953.26	1076.18
953.56	1075.01
953.86	1078.05
954.16	1073.14
954.45	1079.92
954.75	1082.26
955.05	1087.65
955.35	1091.16
955.64	1089.75
955.94	1082.97
956.24	1082.03
956.54	1079.22
956.83	1073.60
957.13	1076.18
957.43	1077.35
957.72	1067.52
958.02	1062.84
958.32	1062.60
958.61	1072.90
958.91	1083.43
959.21	1085.54
959.50	1088.82
959.80	1097.48
960.10	1094.43
960.39	1087.65
960.69	1082.26
960.99	1078.28
961.28	1067.75
961.58	1066.82
961.87	1067.99
962.17	1075.94
962.47	1084.14
962.76	1087.65
963.06	1081.56
963.36	1081.09
963.65	1080.86
963.95	1078.05
964.24	1082.03
964.54	1083.43
964.83	1079.69
965.13	1077.82
965.42	1080.16
965.72	1071.50
966.02	1074.31
966.31	1079.22
966.61	1073.37
966.90	1072.43
967.20	1076.18
967.49	1082.26
967.79	1082.03
968.08	1099.12
968.38	1097.71
968.67	1103.33
968.97	1089.29
969.26	1097.01
969.56	1087.88
969.85	1089.29
970.15	1083.20
970.44	1093.26
970.74	1080.39
971.03	1076.41
971.32	1077.82
971.62	1087.41
971.91	1083.20
972.21	1083.20
972.50	1077.82
972.80	1077.58
973.09	1061.43
973.38	1056.52
973.68	1057.45
973.97	1057.92
974.27	1050.20
974.56	1056.75
974.85	1059.79
975.15	1060.73
975.44	1064.94
975.73	1070.09
976.03	1074.54
976.32	1072.20
976.61	1081.33
976.91	1081.80
977.20	1082.50
977.49	1081.33
977.79	1091.63
978.08	1086.01
978.37	1097.01
978.67	1098.88
978.96	1105.90
979.25	1105.20
979.55	1112.22
979.84	1099.12
980.13	1094.20
980.42	1083.90
980.72	1079.92
981.01	1058.62
981.30	1066.58
981.59	1072.43
981.89	1076.88
982.18	1074.07
982.47	1098.65
982.76	1094.20
983.06	1090.69
983.35	1086.94
983.64	1091.63
983.93	1083.90
984.22	1085.07
984.52	1089.05
984.81	1078.52
985.10	1074.07
985.39	1066.58
985.68	1071.26
985.97	1071.26
986.27	1080.86
986.56	1082.50
986.85	1090.69
987.14	1076.88
987.43	1075.48
987.72	1075.71
988.01	1076.65
988.31	1064.48
988.60	1065.65
988.89	1066.35
989.18	1073.84
989.47	1079.69
989.76	1086.71
990.05	1099.35
990.34	1096.54
990.63	1079.69
990.92	1070.80
991.21	1068.69
991.51	1070.80
991.80	1080.16
992.09	1090.69
992.38	1097.95
992.67	1107.54
992.96	1105.90
993.25	1095.37
993.54	1095.14
993.83	1093.73
994.12	1078.75
994.41	1071.73
994.70	1067.75
994.99	1071.26
995.28	1068.92
995.57	1073.60
995.86	1082.97
996.15	1083.20
996.44	1075.48
996.73	1078.28
997.02	1074.54
997.31	1067.28
997.59	1077.35
997.88	1077.82
998.17	1070.56
998.46	1074.31
998.75	1084.84
999.04	1078.52
999.33	1074.54
999.62	1074.31
999.91	1068.92
1000.20	1053.94
1000.49	1060.50
1000.77	1063.54
1001.06	1066.82
1001.35	1080.39
1001.64	1090.22
1001.93	1088.35
1002.22	1098.18
1002.51	1099.82
1002.79	1092.09
1003.08	1091.86
1003.37	1084.14
1003.66	1078.52
1003.95	1067.28
1004.23	1077.82
1004.52	1076.88
1004.81	1089.75
1005.10	1086.48
1005.39	1099.35
1005.67	1087.88
1005.96	1082.03
1006.25	1072.90
1006.54	1082.26
1006.83	1081.80
1007.11	1091.16
1007.40	1088.58
1007.69	1090.69
1007.97	1091.16
1008.26	1080.16
1008.55	1068.22
1008.84	1075.71
1009.12	1066.58
1009.41	1048.79
1009.70	1049.73
1009.98	1049.96
1010.27	1038.73
1010.56	1048.33
1010.85	1056.75
1011.13	1060.96
1011.42	1065.18
1011.71	1072.90
1011.99	1077.82
1012.28	1078.99
1012.56	1077.82
1012.85	1078.75
1013.14	1081.56
1013.42	1075.71
1013.71	1080.16
1014.00	1084.60
1014.28	1087.41
1014.57	1084.84
1014.85	1070.56
1015.14	1067.52
1015.43	1074.54
1015.71	1071.97
1016.00	1069.16
1016.28	1083.90
1016.57	1071.03
1016.85	1068.45
1017.14	1063.77
1017.43	1071.03
1017.71	1069.86
1018.00	1079.22
1018.28	1068.45
1018.57	1080.16
1018.85	1078.75
1019.14	1080.16
1019.42	1075.71
1019.71	1073.60
1019.99	1060.26
1020.28	1055.11
1020.56	1052.30
1020.85	1064.24
1021.13	1080.39
1021.42	1083.67
1021.70	1090.46
1021.99	1087.88
1022.27	1085.07
1022.55	1057.92
1022.84	1082.50
>>>>>End Processed Spectral Data<<<<<
