SpectraSuite Data File
++++++++++++++++++++++++++++++++++++
Date: Mon Aug 26 10:24:36 PDT 2019
User: corrico
Dark Spectrum Present: No
Reference Spectrum Present: No
Number of Sampled Component Spectra: 1
Spectrometers: USB2+H06089
Integration Time (usec): 10000 (USB2+H06089)
Spectra Averaged: 2 (USB2+H06089)
Boxcar Smoothing: 2 (USB2+H06089)
Correct for Electrical Dark: No (USB2+H06089)
Strobe/Lamp Enabled: No (USB2+H06089)
Correct for Detector Non-linearity: No (USB2+H06089)
Correct for Stray Light: No (USB2+H06089)
Number of Pixels in Processed Spectrum: 2048
>>>>>Begin Processed Spectral Data<<<<<
339.70	1032.18
340.07	1032.18
340.45	998.47
340.82	972.96
341.19	950.02
341.57	919.36
341.94	908.60
342.31	897.13
342.69	902.04
343.06	897.36
343.43	894.79
343.81	893.85
344.18	903.45
344.55	905.32
344.93	904.85
345.30	927.32
345.67	928.96
346.04	936.21
346.42	933.87
346.79	956.34
347.16	960.32
347.54	968.05
347.91	973.66
348.28	988.64
348.65	985.83
349.03	992.15
349.40	1010.41
349.77	1025.86
350.14	1028.43
350.52	1040.13
350.89	1048.09
351.26	1047.39
351.63	1045.05
352.01	1060.73
352.38	1071.73
352.75	1083.43
353.12	1101.46
353.50	1112.69
353.87	1111.52
354.24	1111.52
354.61	1105.20
354.98	1092.09
355.36	1097.48
355.73	1106.37
356.10	1106.37
356.47	1107.54
356.84	1108.71
357.22	1095.37
357.59	1100.52
357.96	1099.58
358.33	1098.41
358.70	1093.97
359.08	1096.78
359.45	1078.28
359.82	1090.46
360.19	1091.39
360.56	1104.26
360.94	1103.80
361.31	1115.03
361.68	1094.90
362.05	1088.58
362.42	1074.31
362.79	1071.73
363.16	1058.86
363.54	1069.39
363.91	1076.18
364.28	1077.58
364.65	1089.99
365.02	1094.43
365.39	1098.65
365.76	1104.26
366.14	1111.75
366.51	1112.22
366.88	1115.50
367.25	1113.39
367.62	1102.39
367.99	1103.33
368.36	1093.50
368.73	1091.16
369.10	1085.77
369.48	1087.18
369.85	1082.50
370.22	1087.41
370.59	1090.92
370.96	1102.63
371.33	1109.65
371.70	1108.48
372.07	1112.69
372.44	1112.92
372.81	1101.22
373.18	1093.50
373.55	1093.03
373.93	1087.41
374.30	1084.14
374.67	1085.07
375.04	1086.01
375.41	1090.46
375.78	1094.43
376.15	1086.94
376.52	1098.18
376.89	1099.12
377.26	1094.90
377.63	1098.65
378.00	1108.95
378.37	1092.80
378.74	1093.97
379.11	1104.26
379.48	1096.54
379.85	1101.92
380.22	1114.09
380.59	1113.39
380.96	1117.37
381.33	1124.16
381.70	1115.97
382.07	1115.03
382.44	1115.27
382.81	1100.05
383.18	1095.37
383.55	1099.12
383.92	1086.24
384.29	1104.26
384.66	1121.35
385.03	1120.65
385.40	1128.37
385.77	1133.29
386.14	1125.80
386.51	1121.35
386.88	1126.97
387.25	1121.12
387.62	1126.27
387.99	1123.22
388.36	1128.14
388.73	1134.22
389.10	1134.22
389.46	1141.25
389.83	1141.25
390.20	1135.39
390.57	1135.39
390.94	1139.37
391.31	1126.97
391.68	1120.41
392.05	1116.67
392.42	1105.67
392.79	1099.82
393.16	1106.14
393.53	1115.27
393.89	1118.54
394.26	1111.29
394.63	1119.48
395.00	1124.39
395.37	1121.12
395.74	1112.69
396.11	1130.71
396.48	1134.69
396.84	1126.03
397.21	1127.90
397.58	1132.59
397.95	1135.39
398.32	1134.46
398.69	1151.54
399.06	1151.78
399.42	1159.03
399.79	1164.18
400.16	1174.95
400.53	1171.91
400.90	1184.55
401.27	1196.72
401.64	1201.63
402.00	1199.99
402.37	1201.40
402.74	1205.84
403.11	1205.14
403.48	1218.01
403.84	1231.36
404.21	1259.68
404.58	1265.29
404.95	1283.08
405.32	1290.10
405.68	1309.06
406.05	1311.17
406.42	1333.87
406.79	1351.43
407.16	1380.21
407.52	1399.87
407.89	1428.19
408.26	1469.15
408.63	1511.75
408.99	1536.80
409.36	1554.12
409.73	1600.69
410.10	1644.93
410.47	1689.87
410.83	1745.34
411.20	1808.06
411.57	1873.13
411.94	1932.35
412.30	1996.95
412.67	2067.40
413.04	2171.55
413.40	2243.40
413.77	2326.96
414.14	2431.82
414.51	2542.99
414.87	2632.40
415.24	2755.98
415.61	2898.05
415.97	3022.57
416.34	3181.96
416.71	3347.67
417.08	3515.02
417.44	3671.13
417.81	3867.50
418.18	4051.94
418.54	4271.01
418.91	4505.77
419.28	4790.61
419.64	5043.15
420.01	5335.02
420.38	5644.20
420.74	5943.32
421.11	6248.29
421.48	6607.57
421.84	6961.92
422.21	7341.32
422.58	7775.49
422.94	8214.11
423.31	8665.37
423.68	9163.90
424.04	9671.33
424.41	10181.33
424.77	10701.16
425.14	11254.23
425.51	11842.64
425.87	12497.06
426.24	13187.28
426.61	13951.23
426.97	14800.61
427.34	15564.09
427.70	16396.15
428.07	17252.79
428.44	18145.24
428.80	19068.34
429.17	20080.86
429.53	21065.76
429.90	22199.98
430.27	23195.18
430.63	24181.71
431.00	25316.40
431.36	26546.12
431.73	27551.62
432.09	28733.82
432.46	29880.45
432.83	31001.57
433.19	32018.76
433.56	33332.97
433.92	34656.55
434.29	35869.41
434.65	37073.85
435.02	38232.18
435.38	39228.55
435.75	39948.26
436.11	41057.44
436.48	41990.62
436.84	42877.44
437.21	43805.70
437.57	44726.94
437.94	45419.73
438.30	46083.51
438.67	46549.28
439.03	46784.27
439.40	47004.04
439.76	46848.63
440.13	46559.11
440.49	46394.33
440.86	45948.23
441.22	45501.42
441.59	44984.39
441.95	44524.48
442.32	43696.40
442.68	43052.28
443.05	42210.39
443.41	41395.18
443.78	40362.07
444.14	39530.71
444.51	38422.94
444.87	37574.96
445.24	36558.93
445.60	35563.74
445.96	34534.14
446.33	33747.01
446.69	32690.50
447.06	31850.01
447.42	30926.43
447.79	29905.96
448.15	28961.55
448.51	28064.19
448.88	27305.39
449.24	26478.48
449.61	25937.58
449.97	25311.96
450.33	24668.54
450.70	23913.25
451.06	23366.04
451.43	22651.70
451.79	22130.47
452.15	21640.83
452.52	21042.82
452.88	20537.50
453.24	20070.80
453.61	19532.71
453.97	19026.68
454.34	18548.51
454.70	18080.64
455.06	17561.51
455.43	16915.99
455.79	16267.19
456.15	15756.72
456.52	15179.54
456.88	14741.63
457.24	14273.52
457.61	13903.95
457.97	13460.65
458.33	13006.36
458.70	12525.14
459.06	12073.42
459.42	11668.51
459.79	11231.76
460.15	10855.17
460.51	10465.94
460.88	10141.31
461.24	9750.44
461.60	9449.44
461.96	9163.20
462.33	8860.33
462.69	8575.72
463.05	8329.26
463.42	8089.13
463.78	7832.84
464.14	7597.61
464.50	7393.99
464.87	7168.12
465.23	6948.58
465.59	6732.08
465.95	6560.29
466.32	6337.70
466.68	6159.59
467.04	5992.24
467.40	5853.91
467.77	5714.89
468.13	5591.77
468.49	5476.39
468.85	5351.40
469.22	5261.52
469.58	5145.20
469.94	5041.05
470.30	4917.23
470.66	4823.38
471.03	4709.63
471.39	4618.35
471.75	4520.04
472.11	4432.97
472.47	4348.48
472.84	4254.16
473.20	4146.02
473.56	4074.40
473.92	3979.61
474.28	3900.74
474.65	3829.35
475.01	3757.73
475.37	3659.19
475.73	3621.51
476.09	3559.25
476.45	3496.29
476.81	3441.06
477.18	3383.24
477.54	3304.60
477.90	3221.28
478.26	3150.13
478.62	3083.66
478.98	3038.02
479.34	2996.35
479.71	2959.37
480.07	2924.73
480.43	2879.33
480.79	2841.18
481.15	2792.49
481.51	2751.30
481.87	2714.55
482.23	2678.74
482.59	2633.10
482.96	2588.16
483.32	2555.86
483.68	2508.35
484.04	2479.33
484.40	2441.18
484.76	2425.50
485.12	2392.03
485.48	2366.75
485.84	2329.54
486.20	2310.34
486.56	2258.38
486.92	2227.72
487.28	2205.72
487.64	2176.46
488.00	2146.51
488.37	2130.12
488.73	2106.01
489.09	2079.10
489.45	2054.52
489.81	2014.73
490.17	1987.11
490.53	1962.07
490.89	1922.52
491.25	1899.34
491.61	1889.98
491.97	1873.60
492.33	1853.47
492.69	1840.13
493.05	1824.21
493.41	1798.47
493.77	1771.79
494.13	1749.08
494.49	1726.38
494.85	1698.76
495.21	1678.87
495.57	1658.04
495.93	1648.44
496.29	1630.65
496.64	1624.57
497.00	1605.61
497.36	1592.97
497.72	1565.12
498.08	1545.69
498.44	1532.35
498.80	1532.82
499.16	1522.75
499.52	1502.86
499.88	1491.86
500.24	1469.86
500.60	1463.54
500.96	1449.96
501.32	1451.37
501.68	1444.34
502.03	1446.45
502.39	1432.88
502.75	1419.77
503.11	1412.05
503.47	1414.15
503.83	1410.64
504.19	1391.21
504.55	1384.66
504.91	1377.17
505.26	1354.70
505.62	1338.08
505.98	1337.85
506.34	1342.53
506.70	1332.00
507.06	1328.02
507.42	1324.04
507.78	1312.34
508.13	1297.12
508.49	1287.06
508.85	1282.15
509.21	1265.29
509.57	1262.72
509.93	1255.23
510.28	1258.97
510.64	1258.74
511.00	1263.42
511.36	1258.27
511.72	1260.85
512.07	1258.27
512.43	1249.61
512.79	1245.16
513.15	1232.06
513.51	1219.42
513.86	1214.27
514.22	1206.55
514.58	1208.89
514.94	1226.21
515.30	1232.29
515.65	1230.89
516.01	1229.48
516.37	1211.23
516.73	1197.42
517.08	1185.25
517.44	1175.89
517.80	1181.74
518.16	1187.59
518.51	1183.14
518.87	1186.18
519.23	1187.59
519.59	1186.42
519.94	1184.31
520.30	1184.31
520.66	1180.57
521.01	1186.42
521.37	1187.12
521.73	1190.63
522.09	1187.82
522.44	1183.37
522.80	1174.25
523.16	1169.80
523.51	1161.61
523.87	1158.80
524.23	1161.37
524.58	1163.71
524.94	1161.37
525.30	1159.27
525.65	1155.76
526.01	1152.48
526.37	1137.27
526.72	1129.54
527.08	1133.05
527.44	1135.16
527.79	1136.56
528.15	1144.29
528.51	1155.99
528.86	1151.54
529.22	1148.50
529.58	1144.05
529.93	1143.12
530.29	1127.90
530.65	1122.05
531.00	1129.54
531.36	1135.63
531.71	1133.52
532.07	1120.18
532.43	1125.56
532.78	1119.95
533.14	1121.58
533.49	1120.65
533.85	1144.76
534.21	1145.93
534.56	1147.56
534.92	1145.22
535.27	1137.73
535.63	1134.22
535.98	1144.99
536.34	1138.20
536.69	1130.71
537.05	1139.37
537.41	1128.61
537.76	1111.99
538.12	1107.54
538.47	1101.92
538.83	1094.43
539.18	1097.01
539.54	1108.48
539.89	1115.27
540.25	1114.09
540.60	1125.10
540.96	1130.71
541.31	1118.31
541.67	1126.03
542.02	1125.56
542.38	1123.69
542.73	1124.39
543.09	1131.18
543.44	1114.10
543.80	1126.97
544.15	1133.52
544.51	1125.10
544.86	1123.93
545.22	1132.59
545.57	1128.84
545.93	1116.20
546.28	1117.61
546.64	1113.16
546.99	1121.82
547.35	1123.22
547.70	1123.46
548.05	1124.63
548.41	1128.14
548.76	1117.14
549.12	1112.46
549.47	1120.18
549.83	1126.50
550.18	1121.82
550.53	1128.14
550.89	1139.37
551.24	1132.12
551.60	1115.50
551.95	1112.22
552.30	1113.63
552.66	1111.75
553.01	1115.27
553.37	1122.75
553.72	1125.33
554.07	1114.80
554.43	1102.86
554.78	1102.86
555.13	1108.24
555.49	1113.63
555.84	1107.78
556.19	1112.69
556.55	1115.50
556.90	1108.48
557.26	1099.58
557.61	1108.95
557.96	1115.50
558.32	1104.50
558.67	1111.29
559.02	1116.44
559.37	1117.37
559.73	1106.37
560.08	1113.39
560.43	1100.05
560.79	1099.35
561.14	1104.26
561.49	1111.52
561.85	1109.18
562.20	1118.54
562.55	1112.69
562.90	1101.46
563.26	1091.16
563.61	1076.65
563.96	1082.26
564.32	1093.26
564.67	1097.95
565.02	1105.67
565.37	1120.65
565.73	1115.97
566.08	1105.44
566.43	1106.37
566.78	1106.61
567.14	1104.50
567.49	1105.90
567.84	1105.44
568.19	1108.95
568.54	1108.24
568.90	1103.09
569.25	1095.84
569.60	1106.37
569.95	1103.33
570.31	1105.67
570.66	1110.58
571.01	1120.88
571.36	1116.44
571.71	1114.80
572.06	1110.82
572.42	1108.71
572.77	1102.39
573.12	1097.48
573.47	1096.07
573.82	1100.05
574.18	1107.78
574.53	1112.22
574.88	1119.24
575.23	1126.73
575.58	1131.65
575.93	1129.54
576.28	1131.41
576.64	1127.90
576.99	1116.90
577.34	1102.39
577.69	1107.31
578.04	1092.80
578.39	1095.60
578.74	1100.05
579.09	1096.07
579.44	1094.20
579.80	1114.09
580.15	1105.20
580.50	1106.84
580.85	1109.18
581.20	1106.37
581.55	1087.65
581.90	1101.46
582.25	1094.43
582.60	1096.78
582.95	1100.05
583.30	1108.01
583.65	1106.37
584.00	1109.18
584.35	1105.67
584.71	1100.29
585.06	1096.54
585.41	1098.18
585.76	1096.78
586.11	1101.92
586.46	1091.39
586.81	1094.20
587.16	1085.31
587.51	1082.26
587.86	1089.99
588.21	1103.33
588.56	1095.84
588.91	1092.80
589.26	1095.37
589.61	1092.33
589.96	1081.09
590.31	1087.88
590.66	1096.78
591.01	1101.69
591.36	1093.73
591.71	1104.73
592.06	1114.10
592.41	1111.29
592.76	1110.58
593.10	1117.14
593.45	1111.05
593.80	1105.67
594.15	1111.05
594.50	1114.33
594.85	1110.35
595.20	1114.33
595.55	1109.88
595.90	1102.86
596.25	1096.78
596.60	1094.20
596.95	1084.37
597.30	1092.33
597.64	1142.42
597.99	1145.22
598.34	1149.20
598.69	1154.82
599.04	1153.42
599.39	1110.58
599.74	1106.37
600.09	1105.44
600.44	1113.63
600.78	1115.27
601.13	1100.99
601.48	1099.35
601.83	1103.09
602.18	1096.31
602.53	1094.20
602.88	1102.63
603.22	1112.69
603.57	1117.14
603.92	1119.01
604.27	1108.71
604.62	1102.63
604.97	1102.16
605.31	1092.09
605.66	1092.33
606.01	1104.03
606.36	1104.26
606.71	1095.84
607.05	1090.46
607.40	1086.48
607.75	1077.82
608.10	1079.92
608.44	1083.20
608.79	1090.92
609.14	1095.37
609.49	1097.48
609.84	1096.54
610.18	1090.69
610.53	1088.82
610.88	1094.67
611.23	1096.54
611.57	1100.75
611.92	1105.67
612.27	1112.46
612.62	1109.65
612.96	1100.99
613.31	1096.78
613.66	1097.95
614.00	1096.31
614.35	1090.46
614.70	1095.14
615.05	1103.09
615.39	1103.80
615.74	1093.97
616.09	1094.43
616.43	1090.46
616.78	1081.33
617.13	1077.35
617.47	1079.46
617.82	1089.75
618.17	1086.94
618.51	1089.99
618.86	1100.05
619.21	1100.52
619.55	1092.33
619.90	1106.61
620.25	1112.46
620.59	1102.39
620.94	1111.75
621.29	1110.82
621.63	1110.35
621.98	1094.43
622.32	1090.46
622.67	1083.43
623.02	1073.84
623.36	1069.62
623.71	1079.92
624.05	1076.88
624.40	1076.65
624.75	1077.82
625.09	1069.39
625.44	1064.48
625.78	1080.39
626.13	1075.48
626.48	1083.43
626.82	1096.31
627.17	1107.31
627.51	1108.48
627.86	1112.22
628.20	1110.12
628.55	1101.22
628.89	1093.03
629.24	1084.37
629.58	1091.86
629.93	1100.99
630.28	1108.24
630.62	1106.61
630.97	1108.95
631.31	1101.22
631.66	1098.88
632.00	1093.73
632.35	1096.54
632.69	1088.35
633.04	1095.60
633.38	1094.43
633.73	1088.12
634.07	1093.50
634.42	1100.29
634.76	1095.84
635.11	1094.90
635.45	1100.29
635.79	1081.80
636.14	1072.67
636.48	1068.69
636.83	1057.69
637.17	1055.82
637.52	1070.09
637.86	1082.73
638.21	1090.22
638.55	1097.24
638.89	1088.35
639.24	1079.92
639.58	1073.84
639.93	1067.75
640.27	1056.52
640.61	1067.75
640.96	1077.35
641.30	1083.20
641.65	1078.28
641.99	1087.41
642.33	1075.24
642.68	1070.80
643.02	1070.09
643.37	1081.56
643.71	1080.39
644.05	1091.86
644.40	1096.54
644.74	1091.39
645.08	1088.82
645.43	1088.82
645.77	1091.39
646.11	1091.16
646.46	1088.82
646.80	1087.88
647.14	1096.78
647.49	1098.41
647.83	1102.16
648.17	1114.10
648.52	1108.95
648.86	1102.63
649.20	1108.01
649.55	1091.39
649.89	1081.33
650.23	1082.50
650.57	1084.14
650.92	1069.16
651.26	1073.84
651.60	1071.97
651.95	1074.54
652.29	1067.05
652.63	1076.65
652.97	1090.92
653.32	1102.86
653.66	1108.01
654.00	1118.07
654.34	1112.46
654.69	1106.37
655.03	1099.35
655.37	1089.29
655.71	1082.73
656.05	1091.39
656.40	1090.22
656.74	1092.80
657.08	1100.52
657.42	1103.56
657.76	1089.52
658.11	1087.65
658.45	1080.39
658.79	1079.22
659.13	1075.71
659.47	1080.16
659.82	1080.39
660.16	1090.22
660.50	1093.97
660.84	1092.33
661.18	1095.37
661.52	1096.54
661.87	1099.82
662.21	1104.03
662.55	1105.90
662.89	1102.39
663.23	1096.31
663.57	1084.84
663.91	1074.07
664.25	1073.37
664.60	1073.60
664.94	1085.54
665.28	1098.18
665.62	1099.35
665.96	1102.39
666.30	1108.48
666.64	1099.12
666.98	1097.71
667.32	1094.67
667.66	1101.46
668.01	1104.97
668.35	1106.84
668.69	1092.33
669.03	1090.92
669.37	1085.54
669.71	1080.86
670.05	1074.07
670.39	1080.86
670.73	1093.73
671.07	1093.97
671.41	1095.37
671.75	1103.33
672.09	1107.07
672.43	1102.16
672.77	1109.18
673.11	1107.78
673.45	1108.71
673.79	1100.05
674.13	1095.37
674.47	1097.24
674.81	1093.97
675.15	1086.71
675.49	1092.09
675.83	1087.41
676.17	1073.37
676.51	1080.86
676.85	1086.94
677.19	1081.33
677.53	1091.39
677.87	1094.67
678.21	1087.41
678.55	1076.65
678.89	1073.14
679.23	1070.09
679.57	1058.16
679.90	1060.96
680.24	1074.07
680.58	1079.69
680.92	1082.50
681.26	1097.71
681.60	1103.80
681.94	1101.46
682.28	1098.41
682.62	1096.07
682.96	1085.31
683.29	1084.37
683.63	1081.33
683.97	1085.77
684.31	1082.03
684.65	1078.28
684.99	1075.71
685.33	1076.65
685.67	1069.62
686.00	1067.99
686.34	1069.86
686.68	1063.54
687.02	1063.54
687.36	1065.88
687.70	1067.28
688.03	1075.24
688.37	1077.11
688.71	1083.20
689.05	1095.60
689.39	1104.97
689.72	1108.01
690.06	1099.82
690.40	1094.43
690.74	1086.48
691.08	1080.86
691.41	1086.71
691.75	1107.78
692.09	1108.95
692.43	1094.90
692.76	1092.33
693.10	1079.69
693.44	1065.65
693.78	1065.88
694.11	1085.07
694.45	1090.46
694.79	1096.54
695.13	1098.88
695.46	1096.54
695.80	1084.84
696.14	1088.35
696.48	1101.22
696.81	1110.35
697.15	1109.65
697.49	1107.31
697.82	1101.69
698.16	1087.88
698.50	1081.56
698.83	1085.77
699.17	1093.97
699.51	1095.84
699.84	1087.65
700.18	1078.52
700.52	1073.60
700.85	1070.80
701.19	1075.01
701.53	1082.73
701.86	1078.75
702.20	1084.37
702.54	1078.05
702.87	1074.54
703.21	1083.20
703.55	1096.31
703.88	1094.90
704.22	1103.33
704.55	1104.26
704.89	1096.31
705.23	1100.52
705.56	1101.92
705.90	1095.37
706.23	1087.18
706.57	1089.29
706.91	1079.92
707.24	1075.48
707.58	1081.09
707.91	1081.80
708.25	1084.60
708.58	1081.33
708.92	1075.48
709.26	1084.37
709.59	1085.07
709.93	1074.31
710.26	1074.07
710.60	1070.80
710.93	1060.03
711.27	1067.99
711.60	1073.60
711.94	1088.12
712.27	1089.99
712.61	1091.86
712.94	1087.41
713.28	1089.05
713.61	1076.41
713.95	1084.14
714.28	1089.52
714.62	1087.41
714.95	1081.09
715.29	1087.18
715.62	1087.41
715.96	1093.50
716.29	1100.99
716.63	1101.22
716.96	1098.41
717.29	1106.14
717.63	1095.84
717.96	1088.82
718.30	1089.75
718.63	1093.03
718.97	1092.33
719.30	1095.84
719.63	1096.07
719.97	1096.78
720.30	1083.67
720.64	1074.07
720.97	1059.33
721.30	1067.99
721.64	1070.56
721.97	1087.41
722.31	1088.82
722.64	1106.37
722.97	1106.61
723.31	1103.80
723.64	1095.37
723.97	1098.41
724.31	1094.67
724.64	1085.77
724.98	1085.31
725.31	1084.60
725.64	1088.82
725.98	1086.94
726.31	1093.73
726.64	1097.95
726.97	1087.65
727.31	1083.67
727.64	1093.97
727.97	1084.60
728.31	1075.48
728.64	1086.24
728.97	1085.31
729.31	1081.56
729.64	1078.28
729.97	1091.39
730.30	1103.09
730.64	1095.14
730.97	1084.37
731.30	1086.71
731.63	1080.16
731.97	1067.99
732.30	1080.86
732.63	1079.69
732.96	1078.99
733.30	1081.33
733.63	1088.12
733.96	1089.52
734.29	1100.75
734.63	1108.95
734.96	1103.56
735.29	1097.24
735.62	1094.20
735.95	1089.52
736.29	1087.88
736.62	1085.07
736.95	1082.03
737.28	1084.60
737.61	1082.03
737.94	1078.75
738.28	1088.12
738.61	1095.14
738.94	1082.26
739.27	1067.52
739.60	1072.20
739.93	1065.88
740.27	1070.09
740.60	1077.82
740.93	1097.95
741.26	1094.20
741.59	1101.92
741.92	1097.01
742.25	1083.43
742.58	1091.86
742.91	1084.84
743.25	1073.84
743.58	1068.69
743.91	1072.67
744.24	1057.45
744.57	1055.82
744.90	1063.07
745.23	1067.52
745.56	1082.97
745.89	1082.50
746.22	1090.22
746.55	1098.41
746.88	1097.01
747.21	1090.69
747.54	1094.20
747.87	1100.75
748.20	1092.80
748.53	1098.41
748.87	1095.37
749.20	1093.03
749.53	1085.31
749.86	1083.43
750.19	1066.58
750.52	1077.35
750.85	1068.92
751.18	1061.43
751.51	1058.16
751.84	1072.43
752.16	1065.41
752.49	1076.41
752.82	1081.80
753.15	1085.77
753.48	1091.63
753.81	1083.90
754.14	1077.58
754.47	1072.90
754.80	1069.39
755.13	1060.96
755.46	1073.60
755.79	1083.90
756.12	1100.29
756.45	1099.82
756.78	1097.24
757.11	1087.41
757.43	1096.31
757.76	1093.26
758.09	1101.22
758.42	1096.54
758.75	1092.09
759.08	1078.99
759.41	1073.60
759.74	1069.62
760.07	1077.35
760.39	1095.37
760.72	1101.22
761.05	1101.92
761.38	1103.33
761.71	1104.73
762.04	1088.58
762.36	1079.22
762.69	1080.16
763.02	1089.99
763.35	1094.20
763.68	1105.20
764.01	1108.24
764.33	1104.73
764.66	1090.92
764.99	1084.60
765.32	1069.39
765.65	1066.35
765.97	1068.22
766.30	1072.67
766.63	1065.41
766.96	1064.94
767.28	1061.43
767.61	1056.28
767.94	1055.82
768.27	1064.71
768.59	1063.07
768.92	1067.52
769.25	1073.37
769.58	1064.71
769.90	1063.77
770.23	1080.39
770.56	1076.65
770.89	1069.86
771.21	1071.03
771.54	1064.48
771.87	1065.65
772.19	1069.86
772.52	1079.22
772.85	1082.50
773.17	1091.86
773.50	1089.29
773.83	1091.16
774.15	1090.22
774.48	1087.88
774.81	1088.58
775.13	1082.73
775.46	1076.18
775.79	1071.97
776.11	1074.54
776.44	1066.58
776.77	1065.65
777.09	1066.58
777.42	1071.26
777.74	1081.80
778.07	1086.94
778.40	1089.29
778.72	1093.73
779.05	1091.16
779.37	1074.07
779.70	1081.56
780.03	1085.54
780.35	1084.60
780.68	1082.73
781.00	1091.16
781.33	1078.99
781.65	1085.31
781.98	1082.50
782.31	1093.03
782.63	1088.58
782.96	1090.22
783.28	1082.03
783.61	1084.37
783.93	1080.16
784.26	1078.52
784.58	1079.69
784.91	1083.20
785.23	1089.52
785.56	1089.99
785.88	1093.26
786.21	1097.48
786.53	1100.99
786.86	1095.37
787.18	1094.90
787.51	1098.18
787.83	1098.88
788.16	1091.39
788.48	1087.65
788.81	1082.73
789.13	1086.71
789.46	1080.63
789.78	1078.75
790.10	1093.97
790.43	1083.43
790.75	1077.82
791.08	1081.33
791.40	1084.84
791.73	1082.50
792.05	1094.90
792.37	1094.20
792.70	1086.24
793.02	1085.54
793.35	1079.22
793.67	1071.73
793.99	1067.52
794.32	1076.65
794.64	1074.77
794.96	1073.37
795.29	1077.35
795.61	1085.31
795.93	1081.33
796.26	1079.22
796.58	1081.33
796.91	1087.41
797.23	1080.86
797.55	1074.07
797.87	1085.54
798.20	1096.31
798.52	1078.28
798.84	1079.69
799.17	1089.99
799.49	1077.11
799.81	1066.82
800.14	1079.22
800.46	1072.90
800.78	1068.92
801.10	1071.26
801.43	1074.54
801.75	1072.20
802.07	1080.63
802.40	1084.84
802.72	1083.20
803.04	1079.22
803.36	1094.43
803.69	1098.41
804.01	1101.69
804.33	1102.63
804.65	1102.39
804.97	1090.46
805.30	1084.60
805.62	1075.24
805.94	1075.71
806.26	1067.05
806.58	1059.79
806.91	1060.73
807.23	1059.79
807.55	1072.20
807.87	1087.18
808.19	1095.60
808.52	1086.24
808.84	1089.29
809.16	1082.26
809.48	1079.46
809.80	1071.97
810.12	1086.48
810.44	1085.07
810.77	1085.54
811.09	1082.97
811.41	1091.63
811.73	1086.01
812.05	1093.03
812.37	1087.41
812.69	1080.39
813.01	1085.54
813.33	1087.88
813.66	1082.97
813.98	1086.24
814.30	1091.39
814.62	1082.03
814.94	1074.54
815.26	1067.05
815.58	1060.96
815.90	1058.16
816.22	1061.90
816.54	1063.77
816.86	1065.65
817.18	1059.09
817.50	1057.69
817.82	1043.88
818.14	1043.18
818.46	1050.90
818.78	1055.11
819.10	1054.88
819.42	1062.14
819.74	1073.14
820.06	1073.60
820.38	1085.77
820.70	1092.56
821.02	1098.18
821.34	1096.07
821.66	1096.54
821.98	1085.31
822.30	1090.22
822.62	1093.50
822.94	1088.12
823.26	1093.03
823.58	1100.29
823.90	1089.05
824.22	1081.09
824.54	1072.20
824.86	1067.28
825.18	1061.67
825.50	1059.56
825.81	1061.20
826.13	1070.80
826.45	1068.45
826.77	1078.99
827.09	1085.07
827.41	1084.37
827.73	1087.41
828.05	1092.56
828.36	1086.24
828.68	1088.58
829.00	1096.07
829.32	1096.78
829.64	1090.46
829.96	1086.71
830.28	1090.22
830.59	1086.01
830.91	1087.88
831.23	1087.18
831.55	1082.97
831.87	1068.69
832.19	1067.28
832.50	1066.35
832.82	1069.39
833.14	1082.97
833.46	1089.05
833.78	1094.43
834.09	1097.24
834.41	1095.84
834.73	1087.18
835.05	1074.07
835.36	1068.22
835.68	1064.48
836.00	1064.01
836.32	1064.24
836.63	1085.77
836.95	1104.50
837.27	1101.22
837.59	1101.46
837.90	1100.99
838.22	1100.99
838.54	1082.50
838.85	1076.41
839.17	1081.09
839.49	1076.88
839.80	1069.62
840.12	1078.28
840.44	1078.99
840.76	1076.88
841.07	1085.07
841.39	1083.43
841.71	1081.80
842.02	1088.58
842.34	1077.82
842.65	1076.18
842.97	1071.26
843.29	1070.09
843.60	1074.77
843.92	1082.50
844.24	1086.48
844.55	1098.41
844.87	1091.39
845.18	1100.52
845.50	1102.39
845.82	1100.29
846.13	1089.05
846.45	1084.37
846.76	1073.60
847.08	1069.86
847.40	1062.14
847.71	1069.62
848.03	1071.73
848.34	1070.56
848.66	1077.11
848.97	1082.50
849.29	1078.05
849.60	1087.18
849.92	1089.99
850.24	1087.41
850.55	1088.82
850.87	1094.90
851.18	1088.58
851.50	1080.39
851.81	1082.03
852.13	1078.99
852.44	1081.56
852.76	1087.65
853.07	1089.05
853.39	1087.18
853.70	1083.67
854.01	1071.73
854.33	1068.92
854.64	1074.77
854.96	1068.92
855.27	1080.39
855.59	1090.69
855.90	1098.65
856.22	1089.75
856.53	1090.22
856.84	1088.82
857.16	1088.82
857.47	1082.73
857.79	1084.84
858.10	1087.65
858.41	1083.67
858.73	1081.09
859.04	1081.80
859.36	1078.52
859.67	1071.97
859.98	1069.86
860.30	1072.43
860.61	1062.84
860.92	1064.71
861.24	1068.92
861.55	1068.45
861.87	1056.99
862.18	1059.56
862.49	1069.86
862.81	1071.03
863.12	1075.48
863.43	1087.65
863.74	1089.99
864.06	1082.73
864.37	1082.73
864.68	1079.69
865.00	1079.69
865.31	1085.07
865.62	1084.84
865.94	1086.24
866.25	1087.65
866.56	1091.39
866.87	1080.39
867.19	1078.75
867.50	1074.77
867.81	1069.16
868.12	1049.50
868.44	1050.20
868.75	1063.07
869.06	1070.33
869.37	1070.56
869.68	1083.90
870.00	1100.29
870.31	1087.65
870.62	1095.37
870.93	1097.24
871.24	1101.46
871.56	1103.56
871.87	1115.27
872.18	1110.12
872.49	1113.39
872.80	1111.52
873.12	1096.54
873.43	1088.58
873.74	1076.65
874.05	1071.26
874.36	1064.71
874.67	1064.01
874.98	1058.86
875.29	1061.20
875.61	1067.99
875.92	1081.56
876.23	1083.20
876.54	1086.71
876.85	1092.56
877.16	1092.56
877.47	1077.58
877.78	1081.56
878.09	1082.73
878.40	1080.39
878.72	1080.39
879.03	1089.75
879.34	1086.01
879.65	1089.05
879.96	1080.16
880.27	1072.20
880.58	1071.26
880.89	1065.65
881.20	1064.94
881.51	1074.77
881.82	1082.97
882.13	1076.88
882.44	1077.35
882.75	1073.14
883.06	1070.56
883.37	1072.20
883.68	1078.75
883.99	1085.31
884.30	1081.80
884.61	1077.58
884.92	1071.97
885.23	1061.43
885.54	1067.75
885.85	1074.77
886.16	1079.92
886.47	1082.26
886.78	1083.67
887.08	1074.77
887.39	1065.88
887.70	1071.26
888.01	1067.99
888.32	1074.07
888.63	1075.01
888.94	1082.03
889.25	1075.01
889.56	1076.41
889.87	1078.05
890.17	1074.54
890.48	1070.80
890.79	1072.20
891.10	1076.18
891.41	1075.24
891.72	1075.71
892.03	1079.22
892.34	1080.63
892.64	1079.46
892.95	1071.97
893.26	1076.88
893.57	1067.28
893.88	1065.88
894.18	1063.77
894.49	1073.84
894.80	1076.65
895.11	1085.77
895.42	1084.60
895.72	1090.22
896.03	1077.35
896.34	1073.14
896.65	1075.94
896.96	1077.35
897.26	1081.33
897.57	1085.77
897.88	1088.12
898.19	1089.29
898.49	1088.35
898.80	1069.39
899.11	1070.56
899.41	1075.24
899.72	1074.07
900.03	1080.16
900.34	1095.37
900.64	1101.69
900.95	1102.63
901.26	1098.88
901.56	1093.73
901.87	1100.75
902.18	1087.18
902.48	1082.73
902.79	1093.97
903.10	1088.35
903.40	1074.77
903.71	1077.35
904.02	1073.84
904.32	1058.62
904.63	1070.80
904.94	1072.43
905.24	1067.05
905.55	1071.26
905.85	1067.05
906.16	1068.22
906.47	1064.01
906.77	1071.26
907.08	1074.31
907.38	1087.18
907.69	1084.14
908.00	1087.18
908.30	1085.77
908.61	1081.56
908.91	1075.71
909.22	1071.26
909.52	1079.69
909.83	1085.77
910.14	1083.67
910.44	1084.60
910.75	1083.20
911.05	1079.22
911.36	1077.11
911.66	1080.63
911.97	1082.03
912.27	1082.50
912.58	1084.37
912.88	1086.71
913.19	1082.73
913.49	1083.43
913.80	1081.80
914.10	1076.88
914.41	1071.73
914.71	1067.75
915.01	1071.03
915.32	1072.90
915.62	1075.24
915.93	1078.05
916.23	1076.65
916.54	1075.71
916.84	1079.46
917.15	1079.92
917.45	1083.67
917.75	1080.63
918.06	1084.60
918.36	1081.09
918.67	1077.35
918.97	1072.20
919.27	1079.22
919.58	1078.28
919.88	1085.31
920.18	1086.71
920.49	1090.22
920.79	1090.92
921.10	1096.31
921.40	1088.35
921.70	1081.33
922.01	1076.41
922.31	1083.43
922.61	1075.01
922.92	1076.65
923.22	1084.60
923.52	1087.41
923.82	1077.82
924.13	1075.01
924.43	1079.22
924.73	1075.48
925.04	1066.58
925.34	1071.03
925.64	1075.24
925.94	1066.58
926.25	1064.24
926.55	1077.58
926.85	1083.43
927.15	1084.14
927.46	1091.86
927.76	1099.12
928.06	1094.90
928.36	1087.88
928.67	1084.60
928.97	1076.18
929.27	1075.94
929.57	1079.69
929.87	1085.07
930.18	1075.24
930.48	1078.28
930.78	1076.88
931.08	1073.84
931.38	1079.46
931.69	1097.24
931.99	1100.29
932.29	1104.03
932.59	1113.16
932.89	1101.22
933.19	1093.03
933.49	1095.37
933.80	1089.75
934.10	1079.22
934.40	1079.69
934.70	1073.14
935.00	1070.80
935.30	1071.50
935.60	1075.71
935.90	1084.14
936.20	1090.22
936.50	1090.46
936.81	1087.88
937.11	1090.46
937.41	1086.48
937.71	1083.90
938.01	1083.43
938.31	1086.48
938.61	1082.26
938.91	1072.67
939.21	1076.88
939.51	1066.35
939.81	1067.99
940.11	1071.73
940.41	1078.52
940.71	1073.84
941.01	1084.14
941.31	1081.56
941.61	1072.20
941.91	1076.18
942.21	1074.77
942.51	1074.31
942.81	1069.16
943.11	1071.73
943.41	1065.41
943.71	1071.26
944.01	1076.65
944.31	1079.69
944.61	1090.22
944.90	1087.88
945.20	1085.07
945.50	1085.31
945.80	1092.33
946.10	1087.88
946.40	1088.35
946.70	1087.65
947.00	1073.14
947.30	1070.33
947.60	1060.96
947.89	1069.16
948.19	1067.99
948.49	1076.65
948.79	1077.35
949.09	1083.90
949.39	1074.54
949.69	1081.09
949.98	1085.77
950.28	1082.03
950.58	1079.46
950.88	1075.94
951.18	1069.62
951.48	1067.05
951.77	1066.11
952.07	1067.52
952.37	1072.20
952.67	1069.39
952.97	1066.58
953.26	1066.35
953.56	1073.14
953.86	1077.11
954.16	1087.18
954.45	1091.16
954.75	1092.09
955.05	1073.14
955.35	1075.01
955.64	1075.48
955.94	1080.86
956.24	1085.07
956.54	1109.18
956.83	1109.88
957.13	1107.54
957.43	1105.67
957.72	1102.86
958.02	1091.86
958.32	1089.05
958.61	1079.22
958.91	1064.71
959.21	1070.56
959.50	1072.90
959.80	1069.39
960.10	1076.65
960.39	1089.29
960.69	1092.09
960.99	1092.56
961.28	1093.26
961.58	1094.20
961.87	1096.31
962.17	1082.50
962.47	1070.80
962.76	1076.18
963.06	1078.99
963.36	1070.56
963.65	1074.07
963.95	1077.58
964.24	1080.16
964.54	1078.99
964.83	1087.88
965.13	1085.07
965.42	1107.07
965.72	1100.52
966.02	1105.67
966.31	1093.97
966.61	1104.50
966.90	1085.54
967.20	1080.63
967.49	1074.54
967.79	1083.67
968.08	1078.75
968.38	1085.77
968.67	1089.52
968.97	1086.71
969.26	1083.90
969.56	1080.63
969.85	1074.77
970.15	1081.09
970.44	1086.94
970.74	1088.12
971.03	1088.35
971.32	1092.09
971.62	1078.05
971.91	1075.71
972.21	1070.56
972.50	1074.31
972.80	1074.07
973.09	1080.86
973.38	1086.24
973.68	1097.01
973.97	1093.50
974.27	1089.05
974.56	1090.46
974.85	1086.24
975.15	1082.03
975.44	1084.60
975.73	1082.26
976.03	1079.92
976.32	1080.16
976.61	1073.14
976.91	1075.94
977.20	1080.63
977.49	1084.60
977.79	1080.86
978.08	1087.18
978.37	1099.35
978.67	1105.67
978.96	1114.33
979.25	1108.01
979.55	1106.84
979.84	1093.73
980.13	1089.52
980.42	1077.58
980.72	1080.86
981.01	1083.67
981.30	1082.97
981.59	1072.20
981.89	1070.33
982.18	1074.07
982.47	1057.69
982.76	1060.73
983.06	1063.31
983.35	1069.62
983.64	1066.82
983.93	1077.35
984.22	1073.14
984.52	1072.67
984.81	1071.73
985.10	1069.39
985.39	1082.73
985.68	1078.75
985.97	1089.52
986.27	1099.35
986.56	1095.84
986.85	1076.65
987.14	1082.03
987.43	1079.46
987.72	1070.09
988.01	1070.33
988.31	1084.14
988.60	1082.73
988.89	1077.58
989.18	1076.18
989.47	1079.69
989.76	1072.43
990.05	1071.50
990.34	1073.37
990.63	1075.94
990.92	1077.11
991.21	1080.16
991.51	1082.26
991.80	1086.71
992.09	1087.88
992.38	1083.90
992.67	1076.88
992.96	1085.07
993.25	1085.54
993.54	1081.33
993.83	1093.03
994.12	1096.78
994.41	1082.03
994.70	1071.26
994.99	1078.99
995.28	1071.50
995.57	1072.90
995.86	1072.20
996.15	1084.60
996.44	1081.56
996.73	1085.77
997.02	1088.12
997.31	1087.41
997.59	1079.92
997.88	1074.54
998.17	1069.16
998.46	1061.43
998.75	1059.09
999.04	1060.73
999.33	1057.92
999.62	1064.01
999.91	1063.07
1000.20	1063.77
1000.49	1071.03
1000.77	1066.82
1001.06	1056.05
1001.35	1065.65
1001.64	1075.01
1001.93	1063.07
1002.22	1073.14
1002.51	1089.75
1002.79	1096.54
1003.08	1094.90
1003.37	1099.58
1003.66	1096.31
1003.95	1085.31
1004.23	1067.52
1004.52	1073.84
1004.81	1068.69
1005.10	1068.92
1005.39	1072.43
1005.67	1083.43
1005.96	1075.01
1006.25	1088.35
1006.54	1094.90
1006.83	1094.67
1007.11	1095.60
1007.40	1080.16
1007.69	1072.20
1007.97	1064.24
1008.26	1063.54
1008.55	1058.62
1008.84	1076.65
1009.12	1075.01
1009.41	1068.45
1009.70	1068.45
1009.98	1067.05
1010.27	1070.09
1010.56	1071.03
1010.85	1086.48
1011.13	1091.86
1011.42	1092.09
1011.71	1081.09
1011.99	1083.20
1012.28	1081.09
1012.56	1071.03
1012.85	1068.45
1013.14	1079.69
1013.42	1078.99
1013.71	1077.58
1014.00	1083.90
1014.28	1092.33
1014.57	1089.75
1014.85	1092.56
1015.14	1080.86
1015.43	1078.05
1015.71	1067.52
1016.00	1069.16
1016.28	1070.09
1016.57	1079.92
1016.85	1079.69
1017.14	1093.73
1017.43	1088.82
1017.71	1084.14
1018.00	1083.20
1018.28	1092.33
1018.57	1078.28
1018.85	1086.01
1019.14	1091.39
1019.42	1089.75
1019.71	1072.90
1019.99	1083.20
1020.28	1076.65
1020.56	1072.20
1020.85	1073.14
1021.13	1082.03
1021.42	1074.31
1021.70	1069.62
1021.99	1071.50
1022.27	1069.16
1022.55	1093.03
1022.84	1060.26
>>>>>End Processed Spectral Data<<<<<
