SpectraSuite Data File
++++++++++++++++++++++++++++++++++++
Date: Mon Aug 26 10:24:42 PDT 2019
User: corrico
Dark Spectrum Present: No
Reference Spectrum Present: No
Number of Sampled Component Spectra: 1
Spectrometers: USB2+H06089
Integration Time (usec): 10000 (USB2+H06089)
Spectra Averaged: 2 (USB2+H06089)
Boxcar Smoothing: 2 (USB2+H06089)
Correct for Electrical Dark: No (USB2+H06089)
Strobe/Lamp Enabled: No (USB2+H06089)
Correct for Detector Non-linearity: No (USB2+H06089)
Correct for Stray Light: No (USB2+H06089)
Number of Pixels in Processed Spectrum: 2048
>>>>>Begin Processed Spectral Data<<<<<
339.70	1015.79
340.07	1015.79
340.45	988.41
340.82	962.19
341.19	937.85
341.57	912.81
341.94	894.79
342.31	898.06
342.69	910.47
343.06	921.00
343.43	924.51
343.81	918.19
344.18	922.17
344.55	923.11
344.93	917.02
345.30	922.41
345.67	926.38
346.04	927.55
346.42	928.72
346.79	937.85
347.16	950.02
347.54	964.30
347.91	985.37
348.28	995.20
348.65	1009.24
349.03	1008.07
349.40	1018.37
349.77	1023.75
350.14	1039.67
350.52	1048.56
350.89	1060.26
351.26	1061.67
351.63	1063.07
352.01	1061.67
352.38	1061.20
352.75	1071.26
353.12	1088.12
353.50	1086.24
353.87	1086.01
354.24	1089.52
354.61	1091.39
354.98	1095.37
355.36	1102.16
355.73	1110.12
356.10	1107.78
356.47	1109.65
356.84	1101.22
357.22	1100.99
357.59	1093.03
357.96	1096.78
358.33	1093.97
358.70	1091.86
359.08	1092.09
359.45	1101.22
359.82	1105.90
360.19	1104.50
360.56	1105.67
360.94	1105.67
361.31	1096.31
361.68	1100.52
362.05	1108.01
362.42	1105.44
362.79	1097.71
363.16	1103.09
363.54	1096.54
363.91	1097.24
364.28	1103.09
364.65	1104.97
365.02	1097.01
365.39	1096.31
365.76	1083.20
366.14	1078.05
366.51	1081.33
366.88	1096.54
367.25	1096.54
367.62	1105.20
367.99	1118.78
368.36	1116.90
368.73	1100.52
369.10	1100.05
369.48	1093.97
369.85	1084.37
370.22	1075.94
370.59	1082.03
370.96	1082.50
371.33	1085.77
371.70	1082.73
372.07	1089.99
372.44	1088.35
372.81	1097.24
373.18	1104.97
373.55	1104.26
373.93	1111.52
374.30	1111.52
374.67	1101.22
375.04	1086.24
375.41	1089.75
375.78	1093.26
376.15	1099.35
376.52	1096.54
376.89	1107.78
377.26	1113.16
377.63	1104.97
378.00	1106.14
378.37	1109.18
378.74	1112.92
379.11	1116.44
379.48	1122.05
379.85	1116.90
380.22	1118.31
380.59	1107.31
380.96	1100.99
381.33	1101.46
381.70	1108.01
382.07	1109.18
382.44	1119.24
382.81	1119.71
383.18	1112.69
383.55	1109.65
383.92	1114.33
384.29	1111.52
384.66	1111.75
385.03	1122.29
385.40	1124.63
385.77	1116.20
386.14	1116.44
386.51	1110.12
386.88	1108.71
387.25	1107.07
387.62	1108.71
387.99	1109.65
388.36	1119.71
388.73	1120.88
389.10	1131.65
389.46	1133.76
389.83	1119.71
390.20	1117.14
390.57	1114.56
390.94	1103.33
391.31	1105.20
391.68	1122.29
392.05	1127.44
392.42	1127.44
392.79	1132.59
393.16	1135.86
393.53	1132.82
393.89	1130.95
394.26	1132.82
394.63	1144.52
395.00	1146.39
395.37	1149.67
395.74	1151.31
396.11	1161.61
396.48	1151.31
396.84	1152.71
397.21	1149.67
397.58	1153.88
397.95	1147.10
398.32	1148.97
398.69	1148.50
399.06	1161.14
399.42	1164.42
399.79	1168.86
400.16	1173.08
400.53	1181.97
400.90	1183.61
401.27	1196.01
401.64	1198.35
402.00	1216.38
402.37	1225.50
402.74	1236.51
403.11	1244.70
403.48	1255.70
403.84	1258.04
404.21	1268.80
404.58	1287.29
404.95	1304.15
405.32	1329.66
405.68	1346.51
406.05	1371.79
406.42	1388.41
406.79	1401.98
407.16	1425.62
407.52	1463.30
407.89	1484.37
408.26	1515.03
408.63	1550.84
408.99	1589.46
409.36	1614.50
409.73	1666.23
410.10	1714.91
410.47	1765.93
410.83	1829.13
411.20	1911.05
411.57	1974.24
411.94	2036.97
412.30	2130.36
412.67	2214.85
413.04	2277.34
413.40	2371.20
413.77	2489.86
414.14	2588.40
414.51	2706.13
414.87	2846.09
415.24	2975.99
415.61	3122.74
415.97	3276.98
416.34	3451.35
416.71	3629.70
417.08	3824.44
417.44	4017.53
417.81	4240.11
418.18	4450.76
418.54	4699.80
418.91	4985.11
419.28	5294.29
419.64	5592.01
420.01	5945.66
420.38	6293.70
420.74	6628.40
421.11	7000.78
421.48	7407.56
421.84	7790.24
422.21	8172.92
422.58	8670.98
422.94	9144.47
423.31	9622.41
423.68	10247.10
424.04	10923.05
424.41	11489.69
424.77	12165.87
425.14	12861.71
425.51	13503.25
425.87	14235.37
426.24	15028.11
426.61	15867.66
426.97	16855.84
427.34	17774.50
427.70	18765.95
428.07	19784.78
428.44	20779.28
428.80	21781.26
429.17	22808.05
429.53	23854.27
429.90	25024.54
430.27	26145.19
430.63	27304.92
431.00	28590.35
431.36	30018.77
431.73	31254.58
432.09	32595.24
432.46	33838.06
432.83	35267.19
433.19	36418.97
433.56	37903.34
433.92	39434.75
434.29	40990.97
434.65	42373.29
435.02	43713.48
435.38	44963.80
435.75	45788.60
436.11	46954.42
436.48	48006.96
436.84	49043.82
437.21	50030.12
437.57	51075.87
437.94	51723.50
438.30	52266.97
438.67	52599.56
439.03	52672.35
439.40	52835.49
439.76	52730.63
440.13	52510.85
440.49	52535.20
440.86	52220.63
441.22	51851.53
441.59	51309.93
441.95	50793.14
442.32	49847.79
442.68	49116.14
443.05	48119.07
443.41	47173.50
443.78	46012.59
444.14	44978.31
444.51	43646.08
444.87	42678.26
445.24	41505.89
445.60	40410.05
445.96	39336.68
446.33	38563.84
446.69	37412.06
447.06	36479.12
447.42	35503.12
447.79	34348.53
448.15	33237.95
448.51	32226.60
448.88	31413.97
449.24	30486.65
449.61	29818.66
449.97	29106.67
450.33	28374.08
450.70	27478.36
451.06	26863.50
451.43	26121.31
451.79	25518.16
452.15	24944.26
452.52	24355.38
452.88	23702.84
453.24	23147.66
453.61	22541.00
453.97	21923.33
454.34	21358.32
454.70	20841.07
455.06	20250.78
455.43	19554.01
455.79	18874.78
456.15	18273.26
456.52	17536.70
456.88	16999.54
457.24	16405.75
457.61	15900.20
457.97	15332.38
458.33	14854.91
458.70	14290.61
459.06	13793.25
459.42	13369.61
459.79	12866.16
460.15	12448.37
460.51	11990.10
460.88	11584.72
461.24	11107.48
461.60	10787.06
461.96	10427.79
462.33	10121.18
462.69	9781.80
463.05	9490.40
463.42	9189.65
463.78	8890.99
464.14	8598.43
464.50	8381.69
464.87	8130.55
465.23	7877.78
465.59	7704.11
465.95	7477.08
466.32	7246.30
466.68	7040.80
467.04	6846.54
467.40	6622.08
467.77	6446.77
468.13	6287.15
468.49	6157.48
468.85	6022.90
469.22	5906.81
469.58	5800.08
469.94	5676.27
470.30	5552.45
470.66	5422.32
471.03	5289.61
471.39	5199.97
471.75	5078.96
472.11	4959.13
472.47	4878.61
472.84	4755.27
473.20	4620.92
473.56	4525.89
473.92	4423.14
474.28	4322.27
474.65	4270.54
475.01	4205.47
475.37	4126.36
475.73	4057.55
476.09	3979.38
476.45	3880.14
476.81	3793.31
477.18	3716.54
477.54	3639.06
477.90	3572.59
478.26	3501.44
478.62	3437.31
478.98	3374.35
479.34	3331.52
479.71	3278.39
480.07	3242.11
480.43	3177.75
480.79	3137.25
481.15	3067.74
481.51	3010.87
481.87	2959.84
482.23	2924.97
482.59	2858.26
482.96	2826.20
483.32	2785.24
483.68	2746.15
484.04	2711.28
484.40	2699.11
484.76	2657.68
485.12	2625.14
485.48	2596.12
485.84	2556.33
486.20	2500.39
486.56	2453.35
486.92	2413.09
487.28	2366.98
487.64	2338.66
488.00	2314.56
488.37	2304.26
488.73	2274.77
489.09	2253.00
489.45	2214.61
489.81	2179.97
490.17	2132.93
490.53	2101.10
490.89	2064.35
491.25	2041.18
491.61	2011.92
491.97	1982.90
492.33	1970.73
492.69	1948.73
493.05	1925.56
493.41	1900.52
493.77	1889.28
494.13	1864.70
494.49	1843.41
494.85	1814.38
495.21	1797.53
495.57	1776.93
495.93	1750.49
496.29	1724.74
496.64	1710.00
497.00	1689.40
497.36	1676.99
497.72	1657.57
498.08	1647.97
498.44	1630.65
498.80	1613.57
499.16	1575.18
499.52	1554.12
499.88	1540.07
500.24	1534.69
500.60	1525.09
500.96	1515.26
501.32	1519.71
501.68	1503.09
502.03	1479.69
502.39	1469.62
502.75	1461.90
503.11	1448.79
503.47	1435.68
503.83	1434.51
504.19	1425.85
504.55	1426.79
504.91	1413.92
505.26	1402.92
505.62	1376.24
505.98	1371.55
506.34	1356.11
506.70	1347.91
507.06	1343.00
507.42	1353.30
507.78	1336.21
508.13	1333.17
508.49	1320.76
508.85	1315.15
509.21	1311.40
509.57	1312.57
509.93	1301.34
510.28	1297.59
510.64	1301.34
511.00	1286.83
511.36	1272.32
511.72	1269.74
512.07	1268.57
512.43	1257.57
512.79	1263.42
513.15	1264.83
513.51	1273.49
513.86	1256.63
514.22	1256.17
514.58	1239.55
514.94	1222.23
515.30	1210.53
515.65	1221.29
516.01	1214.97
516.37	1225.74
516.73	1238.38
517.08	1234.16
517.44	1223.16
517.80	1223.40
518.16	1206.55
518.51	1200.46
518.87	1201.63
519.23	1200.69
519.59	1206.08
519.94	1206.31
520.30	1206.78
520.66	1201.63
521.01	1207.95
521.37	1194.14
521.73	1197.42
522.09	1195.08
522.44	1203.50
522.80	1196.48
523.16	1194.38
523.51	1186.65
523.87	1175.65
524.23	1159.97
524.58	1161.37
524.94	1162.31
525.30	1167.93
525.65	1182.20
526.01	1187.35
526.37	1179.63
526.72	1176.35
527.08	1174.25
527.44	1167.93
527.79	1160.67
528.15	1155.05
528.51	1162.54
528.86	1152.95
529.22	1140.54
529.58	1138.90
529.93	1147.10
530.29	1143.35
530.65	1142.42
531.00	1149.67
531.36	1145.93
531.71	1145.46
532.07	1135.63
532.43	1141.01
532.78	1149.67
533.14	1158.57
533.49	1148.27
533.85	1153.88
534.21	1151.31
534.56	1138.44
534.92	1126.50
535.27	1138.90
535.63	1143.82
535.98	1146.16
536.34	1158.10
536.69	1157.63
537.05	1157.39
537.41	1137.73
537.76	1129.54
538.12	1122.29
538.47	1122.99
538.83	1119.48
539.18	1129.07
539.54	1138.67
539.89	1134.93
540.25	1139.14
540.60	1134.93
540.96	1132.82
541.31	1125.56
541.67	1122.52
542.02	1127.20
542.38	1114.80
542.73	1113.39
543.09	1110.12
543.44	1118.31
543.80	1119.95
544.15	1122.29
544.51	1132.82
544.86	1137.27
545.22	1131.41
545.57	1126.03
545.93	1133.52
546.28	1130.71
546.64	1126.97
546.99	1132.82
547.35	1129.78
547.70	1135.63
548.05	1138.44
548.41	1149.20
548.76	1142.42
549.12	1133.29
549.47	1123.93
549.83	1115.50
550.18	1109.41
550.53	1105.67
550.89	1115.27
551.24	1123.69
551.60	1122.99
551.95	1126.03
552.30	1130.71
552.66	1131.65
553.01	1129.54
553.37	1126.50
553.72	1117.14
554.07	1111.99
554.43	1109.18
554.78	1102.39
555.13	1101.22
555.49	1104.73
555.84	1099.82
556.19	1104.73
556.55	1104.97
556.90	1112.46
557.26	1112.69
557.61	1118.54
557.96	1118.78
558.32	1120.65
558.67	1124.86
559.02	1125.56
559.37	1127.44
559.73	1111.75
560.08	1104.73
560.43	1100.52
560.79	1099.12
561.14	1103.80
561.49	1122.05
561.85	1132.12
562.20	1123.93
562.55	1126.73
562.90	1118.54
563.26	1119.24
563.61	1117.37
563.96	1119.95
564.32	1120.65
564.67	1134.22
565.02	1135.86
565.37	1133.29
565.73	1130.95
566.08	1121.35
566.43	1120.18
566.78	1105.20
567.14	1110.82
567.49	1119.01
567.84	1123.93
568.19	1113.16
568.54	1114.80
568.90	1115.03
569.25	1126.97
569.60	1126.27
569.95	1132.59
570.31	1135.16
570.66	1138.90
571.01	1117.37
571.36	1120.18
571.71	1119.01
572.06	1132.59
572.42	1122.52
572.77	1126.97
573.12	1121.12
573.47	1118.78
573.82	1104.26
574.18	1096.31
574.53	1100.05
574.88	1115.50
575.23	1111.99
575.58	1108.01
575.93	1114.80
576.28	1100.99
576.64	1080.63
576.99	1078.75
577.34	1080.16
577.69	1088.12
578.04	1100.52
578.39	1110.58
578.74	1119.01
579.09	1121.82
579.44	1110.12
579.80	1113.86
580.15	1107.78
580.50	1099.12
580.85	1099.12
581.20	1106.14
581.55	1101.69
581.90	1109.41
582.25	1115.50
582.60	1118.78
582.95	1105.20
583.30	1096.78
583.65	1082.97
584.00	1078.75
584.35	1074.31
584.71	1084.37
585.06	1087.41
585.41	1101.22
585.76	1101.92
586.11	1093.73
586.46	1089.52
586.81	1080.39
587.16	1076.18
587.51	1073.37
587.86	1081.09
588.21	1100.29
588.56	1116.90
588.91	1113.39
589.26	1118.54
589.61	1129.07
589.96	1112.92
590.31	1108.48
590.66	1104.97
591.01	1103.56
591.36	1097.48
591.71	1105.44
592.06	1105.90
592.41	1111.52
592.76	1114.33
593.10	1111.29
593.45	1106.37
593.80	1103.09
594.15	1105.90
594.50	1100.75
594.85	1101.92
595.20	1093.26
595.55	1089.52
595.90	1083.90
596.25	1085.54
596.60	1086.71
596.95	1086.01
597.30	1084.60
597.64	1137.03
597.99	1139.37
598.34	1132.12
598.69	1139.37
599.04	1159.27
599.39	1115.97
599.74	1116.20
600.09	1115.50
600.44	1120.65
600.78	1109.18
601.13	1098.88
601.48	1094.20
601.83	1098.88
602.18	1092.33
602.53	1093.03
602.88	1106.84
603.22	1104.73
603.57	1100.05
603.92	1104.50
604.27	1102.63
604.62	1094.67
604.97	1098.88
605.31	1104.73
605.66	1094.67
606.01	1086.71
606.36	1082.97
606.71	1083.20
607.05	1085.54
607.40	1095.14
607.75	1104.03
608.10	1096.07
608.44	1095.60
608.79	1100.99
609.14	1098.88
609.49	1095.84
609.84	1108.01
610.18	1119.01
610.53	1117.14
610.88	1117.14
611.23	1118.54
611.57	1127.44
611.92	1119.48
612.27	1110.35
612.62	1112.46
612.96	1118.07
613.31	1103.56
613.66	1092.33
614.00	1092.56
614.35	1084.60
614.70	1082.73
615.05	1086.01
615.39	1097.48
615.74	1098.18
616.09	1106.61
616.43	1094.67
616.78	1094.43
617.13	1085.54
617.47	1084.14
617.82	1073.84
618.17	1075.71
618.51	1079.22
618.86	1083.67
619.21	1084.37
619.55	1084.14
619.90	1094.67
620.25	1086.71
620.59	1091.16
620.94	1092.09
621.29	1098.65
621.63	1090.69
621.98	1093.97
622.32	1085.77
622.67	1086.94
623.02	1086.94
623.36	1093.03
623.71	1093.50
624.05	1105.44
624.40	1110.82
624.75	1110.12
625.09	1112.69
625.44	1115.50
625.78	1105.67
626.13	1095.60
626.48	1085.77
626.82	1076.65
627.17	1081.80
627.51	1081.33
627.86	1079.69
628.20	1087.88
628.55	1093.73
628.89	1088.58
629.24	1090.46
629.58	1098.41
629.93	1097.95
630.28	1095.37
630.62	1096.07
630.97	1093.50
631.31	1090.46
631.66	1091.63
632.00	1089.29
632.35	1082.73
632.69	1079.46
633.04	1084.37
633.38	1099.12
633.73	1105.67
634.07	1112.22
634.42	1114.80
634.76	1111.75
635.11	1092.80
635.45	1092.80
635.79	1088.35
636.14	1092.80
636.48	1094.43
636.83	1110.82
637.17	1107.54
637.52	1107.54
637.86	1112.69
638.21	1109.41
638.55	1098.41
638.89	1088.12
639.24	1100.29
639.58	1103.09
639.93	1112.46
640.27	1106.37
640.61	1114.10
640.96	1099.58
641.30	1092.56
641.65	1071.73
641.99	1082.97
642.33	1082.97
642.68	1089.52
643.02	1085.77
643.37	1087.88
643.71	1084.14
644.05	1091.39
644.40	1089.05
644.74	1089.29
645.08	1108.95
645.43	1109.65
645.77	1106.61
646.11	1096.78
646.46	1099.35
646.80	1087.65
647.14	1091.39
647.49	1091.39
647.83	1094.20
648.17	1095.37
648.52	1098.65
648.86	1095.84
649.20	1097.01
649.55	1103.56
649.89	1104.03
650.23	1111.99
650.57	1115.73
650.92	1104.97
651.26	1111.29
651.60	1106.84
651.95	1095.14
652.29	1089.99
652.63	1100.29
652.97	1092.09
653.32	1092.09
653.66	1097.95
654.00	1095.14
654.34	1083.67
654.69	1085.07
655.03	1084.37
655.37	1087.88
655.71	1099.58
656.05	1102.63
656.40	1100.99
656.74	1100.75
657.08	1097.01
657.42	1088.12
657.76	1088.35
658.11	1088.82
658.45	1098.65
658.79	1094.67
659.13	1083.20
659.47	1082.50
659.82	1076.88
660.16	1073.84
660.50	1071.73
660.84	1078.52
661.18	1082.73
661.52	1096.78
661.87	1094.43
662.21	1096.54
662.55	1091.39
662.89	1098.41
663.23	1088.82
663.57	1083.90
663.91	1087.18
664.25	1096.31
664.60	1090.46
664.94	1084.37
665.28	1085.31
665.62	1077.11
665.96	1077.35
666.30	1081.09
666.64	1085.77
666.98	1088.58
667.32	1098.88
667.66	1099.58
668.01	1095.84
668.35	1100.05
668.69	1103.80
669.03	1097.01
669.37	1092.80
669.71	1093.97
670.05	1090.22
670.39	1086.01
670.73	1087.88
671.07	1094.43
671.41	1092.56
671.75	1094.20
672.09	1087.88
672.43	1085.77
672.77	1082.50
673.11	1078.52
673.45	1083.90
673.79	1089.75
674.13	1088.58
674.47	1084.14
674.81	1095.84
675.15	1097.24
675.49	1097.01
675.83	1094.20
676.17	1097.48
676.51	1096.54
676.85	1094.67
677.19	1089.29
677.53	1094.67
677.87	1087.41
678.21	1077.82
678.55	1069.16
678.89	1081.09
679.23	1078.52
679.57	1082.03
679.90	1080.63
680.24	1093.73
680.58	1084.60
680.92	1086.94
681.26	1084.84
681.60	1095.60
681.94	1088.35
682.28	1088.58
682.62	1091.63
682.96	1092.09
683.29	1084.60
683.63	1086.48
683.97	1093.26
684.31	1089.29
684.65	1093.97
684.99	1087.18
685.33	1084.37
685.67	1093.73
686.00	1098.18
686.34	1106.14
686.68	1110.58
687.02	1120.65
687.36	1103.56
687.70	1101.46
688.03	1093.97
688.37	1100.29
688.71	1081.33
689.05	1091.63
689.39	1086.48
689.72	1082.50
690.06	1074.54
690.40	1072.20
690.74	1065.18
691.08	1072.67
691.41	1067.75
691.75	1078.75
692.09	1089.52
692.43	1091.86
692.76	1082.26
693.10	1083.43
693.44	1084.14
693.78	1082.03
694.11	1084.84
694.45	1094.90
694.79	1106.61
695.13	1094.67
695.46	1095.14
695.80	1086.71
696.14	1087.18
696.48	1082.26
696.81	1087.88
697.15	1085.54
697.49	1081.56
697.82	1074.31
698.16	1071.03
698.50	1072.67
698.83	1076.65
699.17	1078.75
699.51	1090.22
699.84	1092.33
700.18	1089.75
700.52	1086.48
700.85	1091.86
701.19	1082.50
701.53	1077.58
701.86	1079.22
702.20	1086.24
702.54	1086.01
702.87	1090.92
703.21	1097.24
703.55	1095.14
703.88	1092.80
704.22	1090.46
704.55	1088.58
704.89	1097.71
705.23	1100.29
705.56	1100.05
705.90	1094.43
706.23	1088.35
706.57	1074.07
706.91	1063.07
707.24	1072.43
707.58	1080.16
707.91	1084.60
708.25	1095.37
708.58	1100.99
708.92	1088.82
709.26	1097.01
709.59	1099.35
709.93	1093.26
710.26	1099.82
710.60	1093.73
710.93	1087.18
711.27	1069.86
711.60	1082.97
711.94	1074.54
712.27	1084.14
712.61	1080.63
712.94	1090.92
713.28	1079.92
713.61	1074.77
713.95	1071.03
714.28	1074.77
714.62	1083.90
714.95	1073.60
715.29	1075.01
715.62	1072.43
715.96	1074.77
716.29	1065.65
716.63	1080.39
716.96	1083.43
717.29	1076.88
717.63	1069.16
717.96	1070.09
718.30	1062.14
718.63	1075.48
718.97	1082.73
719.30	1086.94
719.63	1093.97
719.97	1087.65
720.30	1083.43
720.64	1080.86
720.97	1073.14
721.30	1065.65
721.64	1072.43
721.97	1071.03
722.31	1077.35
722.64	1086.71
722.97	1096.54
723.31	1101.46
723.64	1105.90
723.97	1109.65
724.31	1107.78
724.64	1101.46
724.98	1102.39
725.31	1089.99
725.64	1083.67
725.98	1094.43
726.31	1087.88
726.64	1096.78
726.97	1106.14
727.31	1107.07
727.64	1094.43
727.97	1106.37
728.31	1099.82
728.64	1093.26
728.97	1095.84
729.31	1096.07
729.64	1100.52
729.97	1096.31
730.30	1104.97
730.64	1105.20
730.97	1100.52
731.30	1086.71
731.63	1084.14
731.97	1081.56
732.30	1084.60
732.63	1093.03
732.96	1097.01
733.30	1104.03
733.63	1104.26
733.96	1104.50
734.29	1099.35
734.63	1099.35
734.96	1101.69
735.29	1095.84
735.62	1079.92
735.95	1081.56
736.29	1079.46
736.62	1069.16
736.95	1071.03
737.28	1083.90
737.61	1088.12
737.94	1097.24
738.28	1090.92
738.61	1093.03
738.94	1096.78
739.27	1096.31
739.60	1095.14
739.93	1101.22
740.27	1095.37
740.60	1080.86
740.93	1077.11
741.26	1062.84
741.59	1055.35
741.92	1066.35
742.25	1070.56
742.58	1080.86
742.91	1077.82
743.25	1079.46
743.58	1079.69
743.91	1089.05
744.24	1083.90
744.57	1096.78
744.90	1103.09
745.23	1093.97
745.56	1094.20
745.89	1088.82
746.22	1092.56
746.55	1097.95
746.88	1096.78
747.21	1092.80
747.54	1095.37
747.87	1089.75
748.20	1084.60
748.53	1088.12
748.87	1087.88
749.20	1082.97
749.53	1080.63
749.86	1073.37
750.19	1073.14
750.52	1063.07
750.85	1068.45
751.18	1067.05
751.51	1072.90
751.84	1064.71
752.16	1065.41
752.49	1070.56
752.82	1073.37
753.15	1072.67
753.48	1083.20
753.81	1093.50
754.14	1080.16
754.47	1084.37
754.80	1079.69
755.13	1069.16
755.46	1061.20
755.79	1065.18
756.12	1060.03
756.45	1057.92
756.78	1064.48
757.11	1066.58
757.43	1068.69
757.76	1067.99
758.09	1080.39
758.42	1075.94
758.75	1077.58
759.08	1078.05
759.41	1079.92
759.74	1076.65
760.07	1082.50
760.39	1081.09
760.72	1091.63
761.05	1096.78
761.38	1095.14
761.71	1092.09
762.04	1094.90
762.36	1085.77
762.69	1078.05
763.02	1069.39
763.35	1065.65
763.68	1069.62
764.01	1060.50
764.33	1057.22
764.66	1072.20
764.99	1079.92
765.32	1075.71
765.65	1085.31
765.97	1089.75
766.30	1095.84
766.63	1086.24
766.96	1098.41
767.28	1099.35
767.61	1091.86
767.94	1079.69
768.27	1086.94
768.59	1074.07
768.92	1066.58
769.25	1080.16
769.58	1080.16
769.90	1087.65
770.23	1090.92
770.56	1092.80
770.89	1084.14
771.21	1089.99
771.54	1083.90
771.87	1071.97
772.19	1076.41
772.52	1082.73
772.85	1076.88
773.17	1070.80
773.50	1078.28
773.83	1077.82
774.15	1085.07
774.48	1086.71
774.81	1089.75
775.13	1093.26
775.46	1089.75
775.79	1075.48
776.11	1074.54
776.44	1071.50
776.77	1071.73
777.09	1071.73
777.42	1071.03
777.74	1063.77
778.07	1070.33
778.40	1070.56
778.72	1073.14
779.05	1082.03
779.37	1072.90
779.70	1083.67
780.03	1081.33
780.35	1082.26
780.68	1078.99
781.00	1098.65
781.33	1094.20
781.65	1096.07
781.98	1093.03
782.31	1105.20
782.63	1102.86
782.96	1095.84
783.28	1083.67
783.61	1086.48
783.93	1067.75
784.26	1065.88
784.58	1066.82
784.91	1075.48
785.23	1070.33
785.56	1070.09
785.88	1067.99
786.21	1068.69
786.53	1073.37
786.86	1084.37
787.18	1089.29
787.51	1086.94
787.83	1078.99
788.16	1075.24
788.48	1065.41
788.81	1070.80
789.13	1074.07
789.46	1076.65
789.78	1074.31
790.10	1078.05
790.43	1076.88
790.75	1085.54
791.08	1085.77
791.40	1084.84
791.73	1084.37
792.05	1082.26
792.37	1071.73
792.70	1078.28
793.02	1090.69
793.35	1086.48
793.67	1080.86
793.99	1091.86
794.32	1086.24
794.64	1079.46
794.96	1080.63
795.29	1083.43
795.61	1070.80
795.93	1075.01
796.26	1070.09
796.58	1073.60
796.91	1081.80
797.23	1091.86
797.55	1080.39
797.87	1080.16
798.20	1075.24
798.52	1064.01
798.84	1062.84
799.17	1071.97
799.49	1081.09
799.81	1084.84
800.14	1086.94
800.46	1087.41
800.78	1081.80
801.10	1084.14
801.43	1076.18
801.75	1079.22
802.07	1073.37
802.40	1079.46
802.72	1072.20
803.04	1078.05
803.36	1084.60
803.69	1080.63
804.01	1085.77
804.33	1093.73
804.65	1099.12
804.97	1086.24
805.30	1093.26
805.62	1086.48
805.94	1079.92
806.26	1075.01
806.58	1076.41
806.91	1074.31
807.23	1075.24
807.55	1068.45
807.87	1063.07
808.19	1074.07
808.52	1078.99
808.84	1082.97
809.16	1077.35
809.48	1090.22
809.80	1075.24
810.12	1074.54
810.44	1071.73
810.77	1078.05
811.09	1070.56
811.41	1079.92
811.73	1076.41
812.05	1078.52
812.37	1078.52
812.69	1081.33
813.01	1077.35
813.33	1077.82
813.66	1064.94
813.98	1076.65
814.30	1073.60
814.62	1083.20
814.94	1083.90
815.26	1086.48
815.58	1086.24
815.90	1088.35
816.22	1081.80
816.54	1084.84
816.86	1097.95
817.18	1091.39
817.50	1078.05
817.82	1078.05
818.14	1076.18
818.46	1069.86
818.78	1075.48
819.10	1084.37
819.42	1082.50
819.74	1078.28
820.06	1079.46
820.38	1072.67
820.70	1079.22
821.02	1082.73
821.34	1080.86
821.66	1081.80
821.98	1091.39
822.30	1089.52
822.62	1084.84
822.94	1090.46
823.26	1088.58
823.58	1078.28
823.90	1065.41
824.22	1078.52
824.54	1075.24
824.86	1072.67
825.18	1067.05
825.50	1075.24
825.81	1069.16
826.13	1070.33
826.45	1076.88
826.77	1086.71
827.09	1089.29
827.41	1088.35
827.73	1091.39
828.05	1093.03
828.36	1096.54
828.68	1097.01
829.00	1102.63
829.32	1102.16
829.64	1095.84
829.96	1090.69
830.28	1095.14
830.59	1083.20
830.91	1081.09
831.23	1084.14
831.55	1081.56
831.87	1082.97
832.19	1090.92
832.50	1089.75
832.82	1080.39
833.14	1077.11
833.46	1067.52
833.78	1053.48
834.09	1049.73
834.41	1053.48
834.73	1059.33
835.05	1063.77
835.36	1078.75
835.68	1089.99
836.00	1087.88
836.32	1087.88
836.63	1084.14
836.95	1077.35
837.27	1068.92
837.59	1079.69
837.90	1067.99
838.22	1072.67
838.54	1072.90
838.85	1076.88
839.17	1066.82
839.49	1083.67
839.80	1086.24
840.12	1086.01
840.44	1078.28
840.76	1081.09
841.07	1074.54
841.39	1067.52
841.71	1073.37
842.02	1085.31
842.34	1090.92
842.65	1091.86
842.97	1100.75
843.29	1089.52
843.60	1076.65
843.92	1070.09
844.24	1066.11
844.55	1064.01
844.87	1063.31
845.18	1075.01
845.50	1078.05
845.82	1088.82
846.13	1083.67
846.45	1089.75
846.76	1088.82
847.08	1092.33
847.40	1080.86
847.71	1089.52
848.03	1090.69
848.34	1086.48
848.66	1079.22
848.97	1074.54
849.29	1067.28
849.60	1061.90
849.92	1062.14
850.24	1062.14
850.55	1072.43
850.87	1072.43
851.18	1086.71
851.50	1089.75
851.81	1092.33
852.13	1089.52
852.44	1090.46
852.76	1084.60
853.07	1079.22
853.39	1076.18
853.70	1077.58
854.01	1076.88
854.33	1076.18
854.64	1075.94
854.96	1074.07
855.27	1076.65
855.59	1075.94
855.90	1077.11
856.22	1084.60
856.53	1086.48
856.84	1081.09
857.16	1081.09
857.47	1073.37
857.79	1065.18
858.10	1067.75
858.41	1071.03
858.73	1075.01
859.04	1083.43
859.36	1088.12
859.67	1102.63
859.98	1096.54
860.30	1092.33
860.61	1086.71
860.92	1083.20
861.24	1066.58
861.55	1078.75
861.87	1068.92
862.18	1071.97
862.49	1075.01
862.81	1078.05
863.12	1071.50
863.43	1079.22
863.74	1082.50
864.06	1080.39
864.37	1076.88
864.68	1078.52
865.00	1076.88
865.31	1070.33
865.62	1074.31
865.94	1082.73
866.25	1083.67
866.56	1090.69
866.87	1093.73
867.19	1091.16
867.50	1086.71
867.81	1080.39
868.12	1072.67
868.44	1070.56
868.75	1064.94
869.06	1059.33
869.37	1060.50
869.68	1075.24
870.00	1079.92
870.31	1087.65
870.62	1094.67
870.93	1092.09
871.24	1084.14
871.56	1081.09
871.87	1070.56
872.18	1062.14
872.49	1063.07
872.80	1069.39
873.12	1063.31
873.43	1069.86
873.74	1074.07
874.05	1075.71
874.36	1070.33
874.67	1078.99
874.98	1085.31
875.29	1094.67
875.61	1094.20
875.92	1080.86
876.23	1076.88
876.54	1070.80
876.85	1063.54
877.16	1057.92
877.47	1076.18
877.78	1074.77
878.09	1076.18
878.40	1078.99
878.72	1097.48
879.03	1080.86
879.34	1077.58
879.65	1073.14
879.96	1076.88
880.27	1064.24
880.58	1070.56
880.89	1074.31
881.20	1073.14
881.51	1069.62
881.82	1078.75
882.13	1084.37
882.44	1089.29
882.75	1097.48
883.06	1093.97
883.37	1081.80
883.68	1078.75
883.99	1075.24
884.30	1078.75
884.61	1077.82
884.92	1091.39
885.23	1090.92
885.54	1088.58
885.85	1083.20
886.16	1079.92
886.47	1061.67
886.78	1052.77
887.08	1049.50
887.39	1046.92
887.70	1058.86
888.01	1076.18
888.32	1091.63
888.63	1101.92
888.94	1099.82
889.25	1091.39
889.56	1085.54
889.87	1083.90
890.17	1082.26
890.48	1083.90
890.79	1088.12
891.10	1088.82
891.41	1085.54
891.72	1081.80
892.03	1080.63
892.34	1086.01
892.64	1089.52
892.95	1082.97
893.26	1087.65
893.57	1086.01
893.88	1085.31
894.18	1079.46
894.49	1084.14
894.80	1072.20
895.11	1075.94
895.42	1075.01
895.72	1071.73
896.03	1077.35
896.34	1081.56
896.65	1088.82
896.96	1080.63
897.26	1083.20
897.57	1086.71
897.88	1084.84
898.19	1079.22
898.49	1072.43
898.80	1071.26
899.11	1056.99
899.41	1058.62
899.72	1063.54
900.03	1073.37
900.34	1087.18
900.64	1089.75
900.95	1098.65
901.26	1092.09
901.56	1093.03
901.87	1086.71
902.18	1085.07
902.48	1085.54
902.79	1086.24
903.10	1079.22
903.40	1068.69
903.71	1069.39
904.02	1066.82
904.32	1067.99
904.63	1074.77
904.94	1076.41
905.24	1081.56
905.55	1075.24
905.85	1067.99
906.16	1064.48
906.47	1075.48
906.77	1070.09
907.08	1079.92
907.38	1084.60
907.69	1085.31
908.00	1089.99
908.30	1090.46
908.61	1086.94
908.91	1086.24
909.22	1088.35
909.52	1080.16
909.83	1086.94
910.14	1083.67
910.44	1078.99
910.75	1073.84
911.05	1071.97
911.36	1069.16
911.66	1069.86
911.97	1076.18
912.27	1081.80
912.58	1083.90
912.88	1087.88
913.19	1088.82
913.49	1098.18
913.80	1093.97
914.10	1083.90
914.41	1077.11
914.71	1071.97
915.01	1058.39
915.32	1061.43
915.62	1070.80
915.93	1071.03
916.23	1068.92
916.54	1074.07
916.84	1077.35
917.15	1075.01
917.45	1078.28
917.75	1082.73
918.06	1086.71
918.36	1078.52
918.67	1081.33
918.97	1085.77
919.27	1087.18
919.58	1089.52
919.88	1090.92
920.18	1082.03
920.49	1076.88
920.79	1078.05
921.10	1080.39
921.40	1086.48
921.70	1084.37
922.01	1082.73
922.31	1082.73
922.61	1077.35
922.92	1081.80
923.22	1096.07
923.52	1093.97
923.82	1090.22
924.13	1084.84
924.43	1076.65
924.73	1061.43
925.04	1072.67
925.34	1069.86
925.64	1070.09
925.94	1068.69
926.25	1087.88
926.55	1085.31
926.85	1093.50
927.15	1094.67
927.46	1098.88
927.76	1089.05
928.06	1077.11
928.36	1076.41
928.67	1074.07
928.97	1067.99
929.27	1064.24
929.57	1077.58
929.87	1069.86
930.18	1078.05
930.48	1088.82
930.78	1088.82
931.08	1087.88
931.38	1099.58
931.69	1096.78
931.99	1086.01
932.29	1096.31
932.59	1094.20
932.89	1087.41
933.19	1087.18
933.49	1092.80
933.80	1080.86
934.10	1078.99
934.40	1067.99
934.70	1056.75
935.00	1052.54
935.30	1056.75
935.60	1061.67
935.90	1075.24
936.20	1086.48
936.50	1089.29
936.81	1087.88
937.11	1078.99
937.41	1075.94
937.71	1071.26
938.01	1067.05
938.31	1068.22
938.61	1070.33
938.91	1070.09
939.21	1073.84
939.51	1077.35
939.81	1088.35
940.11	1098.65
940.41	1106.37
940.71	1104.50
941.01	1106.84
941.31	1087.88
941.61	1087.41
941.91	1084.60
942.21	1092.33
942.51	1091.86
942.81	1090.46
943.11	1091.16
943.41	1085.54
943.71	1082.50
944.01	1080.16
944.31	1087.65
944.61	1084.37
944.90	1088.35
945.20	1083.20
945.50	1090.22
945.80	1096.78
946.10	1097.48
946.40	1099.12
946.70	1098.41
947.00	1087.41
947.30	1077.82
947.60	1067.05
947.89	1064.24
948.19	1070.80
948.49	1077.82
948.79	1082.73
949.09	1085.07
949.39	1086.71
949.69	1079.46
949.98	1067.99
950.28	1060.50
950.58	1063.77
950.88	1062.37
951.18	1073.60
951.48	1080.86
951.77	1086.94
952.07	1086.94
952.37	1085.31
952.67	1079.92
952.97	1081.80
953.26	1082.50
953.56	1093.03
953.86	1105.90
954.16	1101.46
954.45	1101.92
954.75	1091.63
955.05	1071.97
955.35	1059.33
955.64	1072.20
955.94	1071.97
956.24	1079.69
956.54	1085.77
956.83	1092.33
957.13	1071.73
957.43	1066.11
957.72	1068.22
958.02	1072.20
958.32	1062.14
958.61	1078.99
958.91	1078.99
959.21	1074.77
959.50	1067.52
959.80	1074.31
960.10	1062.60
960.39	1062.60
960.69	1064.94
960.99	1064.94
961.28	1056.75
961.58	1056.75
961.87	1060.73
962.17	1062.37
962.47	1062.14
962.76	1060.73
963.06	1061.67
963.36	1064.71
963.65	1066.58
963.95	1068.22
964.24	1075.01
964.54	1078.99
964.83	1084.14
965.13	1088.82
965.42	1083.43
965.72	1075.94
966.02	1073.37
966.31	1062.14
966.61	1059.09
966.90	1076.41
967.20	1079.46
967.49	1085.77
967.79	1088.82
968.08	1094.67
968.38	1070.56
968.67	1065.41
968.97	1058.62
969.26	1068.22
969.56	1065.88
969.85	1087.18
970.15	1091.63
970.44	1093.03
970.74	1085.77
971.03	1084.84
971.32	1083.43
971.62	1091.16
971.91	1082.97
972.21	1076.65
972.50	1071.03
972.80	1070.56
973.09	1068.92
973.38	1083.43
973.68	1083.43
973.97	1082.50
974.27	1082.97
974.56	1082.73
974.85	1081.33
975.15	1089.29
975.44	1088.58
975.73	1087.65
976.03	1071.97
976.32	1065.41
976.61	1067.75
976.91	1070.56
977.20	1060.03
977.49	1072.90
977.79	1069.16
978.08	1067.99
978.37	1070.09
978.67	1078.52
978.96	1071.26
979.25	1081.33
979.55	1090.46
979.84	1083.67
980.13	1080.86
980.42	1097.01
980.72	1091.16
981.01	1082.03
981.30	1079.69
981.59	1077.58
981.89	1065.18
982.18	1061.67
982.47	1064.24
982.76	1074.31
983.06	1078.28
983.35	1082.26
983.64	1097.24
983.93	1090.46
984.22	1090.46
984.52	1091.86
984.81	1089.52
985.10	1080.39
985.39	1077.11
985.68	1080.39
985.97	1076.18
986.27	1077.11
986.56	1067.28
986.85	1073.37
987.14	1070.09
987.43	1079.92
987.72	1071.03
988.01	1080.16
988.31	1078.52
988.60	1071.50
988.89	1058.86
989.18	1062.84
989.47	1056.05
989.76	1049.03
990.05	1053.94
990.34	1060.26
990.63	1075.01
990.92	1086.24
991.21	1092.80
991.51	1101.46
991.80	1105.90
992.09	1102.16
992.38	1098.18
992.67	1087.18
992.96	1079.22
993.25	1079.22
993.54	1079.69
993.83	1074.54
994.12	1088.58
994.41	1093.73
994.70	1091.86
994.99	1091.16
995.28	1094.43
995.57	1090.92
995.86	1085.54
996.15	1076.41
996.44	1075.71
996.73	1078.05
997.02	1079.22
997.31	1085.77
997.59	1092.80
997.88	1089.52
998.17	1088.58
998.46	1088.35
998.75	1084.60
999.04	1081.33
999.33	1086.01
999.62	1086.48
999.91	1094.90
1000.20	1097.24
1000.49	1098.88
1000.77	1096.07
1001.06	1101.46
1001.35	1089.05
1001.64	1078.28
1001.93	1073.14
1002.22	1071.26
1002.51	1060.96
1002.79	1062.14
1003.08	1067.75
1003.37	1068.92
1003.66	1073.60
1003.95	1080.63
1004.23	1082.50
1004.52	1077.58
1004.81	1085.07
1005.10	1071.03
1005.39	1075.71
1005.67	1077.11
1005.96	1081.56
1006.25	1077.58
1006.54	1085.07
1006.83	1092.09
1007.11	1085.31
1007.40	1087.18
1007.69	1090.69
1007.97	1094.90
1008.26	1087.88
1008.55	1086.71
1008.84	1092.80
1009.12	1098.88
1009.41	1097.01
1009.70	1091.16
1009.98	1098.18
1010.27	1086.71
1010.56	1078.28
1010.85	1078.28
1011.13	1073.37
1011.42	1074.77
1011.71	1080.16
1011.99	1069.16
1012.28	1074.54
1012.56	1080.16
1012.85	1076.41
1013.14	1061.67
1013.42	1065.18
1013.71	1062.37
1014.00	1052.77
1014.28	1052.77
1014.57	1061.90
1014.85	1070.09
1015.14	1068.22
1015.43	1067.52
1015.71	1066.11
1016.00	1069.39
1016.28	1063.54
1016.57	1066.58
1016.85	1078.75
1017.14	1087.41
1017.43	1076.41
1017.71	1079.92
1018.00	1071.97
1018.28	1065.18
1018.57	1064.94
1018.85	1077.58
1019.14	1079.46
1019.42	1090.46
1019.71	1086.94
1019.99	1092.09
1020.28	1090.22
1020.56	1083.20
1020.85	1083.20
1021.13	1091.16
1021.42	1082.03
1021.70	1074.77
1021.99	1080.86
1022.27	1070.09
1022.55	1081.33
1022.84	1056.75
>>>>>End Processed Spectral Data<<<<<
