SpectraSuite Data File
++++++++++++++++++++++++++++++++++++
Date: Mon Aug 26 10:24:47 PDT 2019
User: corrico
Dark Spectrum Present: No
Reference Spectrum Present: No
Number of Sampled Component Spectra: 1
Spectrometers: USB2+H06089
Integration Time (usec): 10000 (USB2+H06089)
Spectra Averaged: 2 (USB2+H06089)
Boxcar Smoothing: 2 (USB2+H06089)
Correct for Electrical Dark: No (USB2+H06089)
Strobe/Lamp Enabled: No (USB2+H06089)
Correct for Detector Non-linearity: No (USB2+H06089)
Correct for Stray Light: No (USB2+H06089)
Number of Pixels in Processed Spectrum: 2048
>>>>>Begin Processed Spectral Data<<<<<
339.70	979.51
340.07	979.51
340.45	976.24
340.82	970.39
341.19	946.28
341.57	929.19
341.94	906.96
342.31	895.72
342.69	874.19
343.06	882.85
343.43	895.02
343.81	899.70
344.18	897.60
344.55	912.11
344.93	911.64
345.30	902.28
345.67	911.17
346.04	915.62
346.42	916.32
346.79	918.43
347.16	923.34
347.54	929.19
347.91	947.92
348.28	961.96
348.65	987.47
349.03	1006.66
349.40	1015.32
349.77	1025.39
350.14	1041.30
350.52	1044.82
350.89	1050.20
351.26	1056.52
351.63	1062.60
352.01	1066.11
352.38	1075.24
352.75	1082.26
353.12	1083.90
353.50	1079.22
353.87	1076.65
354.24	1077.35
354.61	1080.16
354.98	1095.84
355.36	1108.24
355.73	1109.88
356.10	1111.75
356.47	1111.75
356.84	1100.05
357.22	1090.92
357.59	1088.58
357.96	1084.37
358.33	1077.58
358.70	1072.20
359.08	1070.56
359.45	1064.94
359.82	1065.18
360.19	1065.41
360.56	1064.94
360.94	1068.45
361.31	1070.80
361.68	1073.60
362.05	1067.28
362.42	1075.94
362.79	1082.26
363.16	1083.67
363.54	1074.77
363.91	1083.90
364.28	1077.82
364.65	1064.71
365.02	1073.37
365.39	1077.82
365.76	1082.50
366.14	1085.07
366.51	1088.35
366.88	1088.82
367.25	1085.31
367.62	1077.11
367.99	1067.28
368.36	1074.54
368.73	1071.03
369.10	1075.48
369.48	1080.86
369.85	1085.77
370.22	1089.05
370.59	1097.01
370.96	1095.84
371.33	1093.26
371.70	1107.07
372.07	1104.03
372.44	1097.01
372.81	1096.31
373.18	1093.97
373.55	1079.69
373.93	1070.09
374.30	1071.26
374.67	1081.56
375.04	1086.24
375.41	1090.22
375.78	1096.07
376.15	1094.90
376.52	1086.01
376.89	1081.80
377.26	1081.56
377.63	1092.33
378.00	1085.54
378.37	1080.86
378.74	1079.69
379.11	1079.92
379.48	1071.73
379.85	1079.22
380.22	1081.56
380.59	1083.20
380.96	1088.82
381.33	1085.54
381.70	1087.41
382.07	1097.48
382.44	1112.22
382.81	1104.97
383.18	1106.14
383.55	1101.69
383.92	1088.58
384.29	1080.16
384.66	1089.75
385.03	1091.39
385.40	1086.94
385.77	1094.67
386.14	1099.35
386.51	1105.67
386.88	1103.09
387.25	1107.78
387.62	1103.80
387.99	1092.56
388.36	1084.37
388.73	1092.80
389.10	1099.35
389.46	1096.54
389.83	1100.99
390.20	1097.95
390.57	1089.52
390.94	1084.60
391.31	1093.03
391.68	1086.48
392.05	1097.95
392.42	1108.24
392.79	1112.69
393.16	1110.35
393.53	1120.41
393.89	1109.88
394.26	1108.01
394.63	1119.24
395.00	1127.20
395.37	1133.05
395.74	1136.80
396.11	1131.65
396.48	1128.37
396.84	1121.82
397.21	1118.78
397.58	1117.84
397.95	1135.86
398.32	1138.67
398.69	1143.82
399.06	1139.37
399.42	1136.56
399.79	1131.18
400.16	1133.29
400.53	1143.59
400.90	1149.20
401.27	1156.22
401.64	1165.12
402.00	1165.59
402.37	1163.71
402.74	1170.50
403.11	1186.42
403.48	1191.33
403.84	1195.78
404.21	1206.55
404.58	1229.25
404.95	1234.63
405.32	1239.08
405.68	1253.59
406.05	1267.40
406.42	1273.02
406.79	1286.83
407.16	1294.08
407.52	1305.55
407.89	1326.38
408.26	1343.23
408.63	1369.92
408.99	1397.30
409.36	1430.77
409.73	1443.64
410.10	1478.52
410.47	1506.84
410.83	1541.71
411.20	1567.46
411.57	1611.93
411.94	1651.25
412.30	1706.02
412.67	1753.53
413.04	1803.15
413.40	1852.77
413.77	1900.05
414.14	1952.47
414.51	2015.20
414.87	2073.25
415.24	2146.51
415.61	2229.83
415.97	2313.85
416.34	2404.67
416.71	2512.10
417.08	2627.72
417.44	2727.43
417.81	2850.54
418.18	2975.29
418.54	3120.17
418.91	3255.69
419.28	3407.82
419.64	3554.57
420.01	3718.18
420.38	3883.18
420.74	4080.49
421.11	4318.29
421.48	4518.64
421.84	4757.14
422.21	4989.09
422.58	5234.37
422.94	5507.05
423.31	5791.42
423.68	6087.97
424.04	6425.94
424.41	6723.66
424.77	6997.50
425.14	7303.64
425.51	7617.27
425.87	7953.61
426.24	8322.24
426.61	8740.50
426.97	9258.93
427.34	9734.29
427.70	10282.44
428.07	10806.25
428.44	11333.58
428.80	11846.39
429.17	12444.63
429.53	13026.02
429.90	13723.73
430.27	14320.33
430.63	14893.06
431.00	15576.27
431.36	16318.92
431.73	16934.24
432.09	17684.85
432.46	18446.70
432.83	19073.49
433.19	19583.50
433.56	20290.81
433.92	20901.92
434.29	21523.10
434.65	22243.05
435.02	22960.89
435.38	23615.07
435.75	24228.52
436.11	24886.45
436.48	25375.62
436.84	25888.90
437.21	26343.20
437.57	26834.94
437.94	27221.37
438.30	27672.62
438.67	27979.70
439.03	28110.77
439.40	28210.24
439.76	28188.71
440.13	28040.55
440.49	28011.77
440.86	27798.31
441.22	27525.40
441.59	27171.51
441.95	26775.96
442.32	26196.21
442.68	25740.04
443.05	25168.01
443.41	24685.86
443.78	24110.56
444.14	23531.28
444.51	22951.76
444.87	22580.55
445.24	22049.48
445.60	21590.51
445.96	21046.33
446.33	20564.41
446.69	19854.53
447.06	19291.63
447.42	18666.24
447.79	18095.85
448.15	17591.47
448.51	17112.59
448.88	16707.21
449.24	16323.83
449.61	16017.22
449.97	15625.88
450.33	15317.40
450.70	14853.51
451.06	14445.79
451.43	13912.38
451.79	13515.42
452.15	13107.00
452.52	12767.86
452.88	12445.10
453.24	12228.36
453.61	11955.92
453.97	11692.61
454.34	11392.09
454.70	11121.52
455.06	10857.04
455.43	10515.32
455.79	10117.67
456.15	9805.67
456.52	9474.02
456.88	9185.67
457.24	8893.80
457.61	8730.43
457.97	8489.36
458.33	8236.11
458.70	7942.37
459.06	7708.32
459.42	7455.31
459.79	7178.42
460.15	6973.86
460.51	6746.59
460.88	6513.24
461.24	6274.51
461.60	6098.03
461.96	5889.96
462.33	5739.93
462.69	5602.31
463.05	5440.11
463.42	5306.93
463.78	5155.26
464.14	5011.79
464.50	4887.04
464.87	4780.54
465.23	4653.92
465.59	4555.62
465.95	4449.59
466.32	4341.69
466.68	4250.65
467.04	4175.52
467.40	4070.89
467.77	3996.00
468.13	3917.12
468.49	3834.03
468.85	3761.47
469.22	3716.30
469.58	3641.87
469.94	3581.25
470.30	3501.21
470.66	3444.10
471.03	3363.58
471.39	3316.31
471.75	3244.22
472.11	3189.45
472.47	3140.76
472.84	3092.78
473.20	3016.72
473.56	2964.99
473.92	2904.84
474.28	2837.20
474.65	2792.73
475.01	2753.41
475.37	2710.11
475.73	2676.17
476.09	2633.34
476.45	2602.44
476.81	2575.53
477.18	2521.69
477.54	2482.14
477.90	2446.80
478.26	2393.67
478.62	2341.71
478.98	2319.24
479.34	2288.11
479.71	2253.94
480.07	2227.25
480.43	2214.85
480.79	2179.04
481.15	2159.38
481.51	2136.91
481.87	2116.55
482.23	2081.91
482.59	2055.22
482.96	2023.16
483.32	2001.16
483.68	1990.39
484.04	1960.43
484.40	1952.47
484.76	1940.30
485.12	1924.62
485.48	1893.03
485.84	1888.81
486.20	1861.19
486.56	1839.19
486.92	1815.79
487.28	1798.23
487.64	1769.45
488.00	1762.89
488.37	1746.51
488.73	1734.34
489.09	1709.06
489.45	1705.08
489.81	1681.44
490.17	1663.89
490.53	1648.67
490.89	1639.78
491.25	1624.57
491.61	1617.78
491.97	1602.10
492.33	1598.12
492.69	1579.16
493.05	1555.52
493.41	1541.48
493.77	1521.58
494.13	1503.09
494.49	1503.56
494.85	1492.09
495.21	1477.35
495.57	1469.62
495.93	1456.98
496.29	1435.45
496.64	1432.17
497.00	1424.22
497.36	1426.79
497.72	1403.62
498.08	1397.30
498.44	1389.58
498.80	1377.17
499.16	1349.08
499.52	1356.11
499.88	1353.77
500.24	1348.15
500.60	1341.83
500.96	1347.21
501.32	1336.21
501.68	1321.47
502.03	1303.68
502.39	1290.57
502.75	1290.57
503.11	1297.36
503.47	1304.15
503.83	1298.30
504.19	1294.08
504.55	1284.25
504.91	1259.91
505.26	1255.46
505.62	1251.48
505.98	1260.61
506.34	1244.70
506.70	1253.59
507.06	1246.57
507.42	1240.95
507.78	1229.95
508.13	1225.50
508.49	1217.08
508.85	1202.57
509.21	1209.35
509.57	1197.89
509.93	1202.33
510.28	1202.10
510.64	1207.25
511.00	1189.69
511.36	1195.31
511.72	1202.33
512.07	1194.84
512.43	1187.59
512.79	1196.72
513.15	1193.21
513.51	1179.63
513.86	1175.89
514.22	1180.10
514.58	1175.18
514.94	1172.61
515.30	1172.37
515.65	1162.31
516.01	1159.97
516.37	1164.18
516.73	1162.31
517.08	1162.31
517.44	1168.63
517.80	1168.16
518.16	1152.25
518.51	1152.01
518.87	1147.56
519.23	1149.91
519.59	1141.01
519.94	1157.63
520.30	1159.50
520.66	1150.37
521.01	1146.16
521.37	1148.73
521.73	1135.86
522.09	1133.29
522.44	1127.20
522.80	1126.97
523.16	1120.41
523.51	1124.63
523.87	1121.82
524.23	1139.37
524.58	1137.97
524.94	1143.35
525.30	1143.59
525.65	1143.12
526.01	1135.16
526.37	1129.07
526.72	1125.56
527.08	1122.99
527.44	1122.99
527.79	1129.31
528.15	1132.59
528.51	1137.97
528.86	1136.56
529.22	1139.61
529.58	1140.78
529.93	1141.48
530.29	1130.71
530.65	1123.69
531.00	1108.71
531.36	1100.05
531.71	1103.33
532.07	1114.80
532.43	1122.52
532.78	1134.93
533.14	1139.61
533.49	1123.93
533.85	1112.92
534.21	1109.41
534.56	1103.56
534.92	1109.18
535.27	1118.31
535.63	1123.93
535.98	1122.52
536.34	1120.65
536.69	1107.78
537.05	1110.12
537.41	1116.20
537.76	1120.18
538.12	1123.93
538.47	1132.35
538.83	1122.75
539.18	1114.80
539.54	1113.39
539.89	1115.73
540.25	1123.69
540.60	1126.73
540.96	1123.46
541.31	1119.95
541.67	1116.90
542.02	1109.65
542.38	1103.33
542.73	1107.78
543.09	1110.58
543.44	1102.39
543.80	1103.09
544.15	1111.29
544.51	1113.86
544.86	1107.78
545.22	1117.14
545.57	1120.88
545.93	1118.07
546.28	1114.09
546.64	1122.05
546.99	1106.84
547.35	1100.75
547.70	1100.05
548.05	1108.01
548.41	1108.95
548.76	1125.80
549.12	1120.65
549.47	1127.20
549.83	1126.03
550.18	1116.44
550.53	1111.29
550.89	1111.75
551.24	1103.33
551.60	1093.73
551.95	1098.65
552.30	1099.35
552.66	1107.78
553.01	1112.92
553.37	1118.07
553.72	1115.50
554.07	1115.73
554.43	1101.46
554.78	1098.41
555.13	1090.92
555.49	1089.52
555.84	1088.35
556.19	1097.71
556.55	1107.54
556.90	1108.01
557.26	1107.31
557.61	1113.39
557.96	1111.29
558.32	1100.52
558.67	1096.78
559.02	1106.61
559.37	1103.09
559.73	1113.63
560.08	1111.52
560.43	1123.46
560.79	1115.97
561.14	1120.65
561.49	1110.82
561.85	1114.33
562.20	1108.01
562.55	1109.18
562.90	1103.33
563.26	1102.86
563.61	1102.63
563.96	1105.20
564.32	1100.05
564.67	1098.18
565.02	1088.12
565.37	1093.26
565.73	1088.12
566.08	1081.56
566.43	1074.77
566.78	1079.22
567.14	1082.26
567.49	1087.88
567.84	1101.22
568.19	1115.73
568.54	1120.18
568.90	1110.82
569.25	1103.56
569.60	1101.22
569.95	1099.58
570.31	1103.56
570.66	1107.54
571.01	1114.33
571.36	1114.33
571.71	1113.39
572.06	1105.20
572.42	1105.90
572.77	1111.29
573.12	1106.37
573.47	1098.41
573.82	1088.12
574.18	1089.75
574.53	1079.92
574.88	1086.48
575.23	1082.97
575.58	1088.82
575.93	1083.67
576.28	1079.22
576.64	1070.80
576.99	1077.82
577.34	1081.56
577.69	1080.86
578.04	1084.37
578.39	1089.29
578.74	1097.01
579.09	1091.16
579.44	1091.63
579.80	1097.24
580.15	1097.24
580.50	1084.84
580.85	1095.37
581.20	1100.52
581.55	1097.95
581.90	1103.09
582.25	1106.84
582.60	1104.03
582.95	1102.16
583.30	1097.01
583.65	1088.58
584.00	1086.01
584.35	1084.14
584.71	1082.73
585.06	1088.58
585.41	1088.35
585.76	1097.01
586.11	1099.58
586.46	1097.71
586.81	1097.01
587.16	1099.82
587.51	1087.88
587.86	1092.33
588.21	1090.69
588.56	1086.48
588.91	1086.94
589.26	1092.09
589.61	1089.75
589.96	1093.03
590.31	1099.35
590.66	1107.54
591.01	1104.50
591.36	1100.99
591.71	1107.54
592.06	1110.12
592.41	1108.71
592.76	1117.61
593.10	1129.31
593.45	1122.52
593.80	1117.61
594.15	1118.78
594.50	1115.97
594.85	1101.92
595.20	1107.54
595.55	1089.75
595.90	1084.84
596.25	1084.84
596.60	1082.97
596.95	1083.43
597.30	1095.60
597.64	1133.29
597.99	1129.78
598.34	1137.97
598.69	1132.35
599.04	1133.52
599.39	1099.82
599.74	1105.44
600.09	1101.92
600.44	1102.86
600.78	1108.48
601.13	1105.67
601.48	1111.05
601.83	1115.50
602.18	1120.41
602.53	1122.52
602.88	1114.56
603.22	1114.56
603.57	1115.27
603.92	1111.99
604.27	1110.82
604.62	1118.07
604.97	1119.71
605.31	1104.97
605.66	1103.09
606.01	1111.52
606.36	1112.22
606.71	1104.50
607.05	1119.24
607.40	1114.33
607.75	1097.71
608.10	1101.22
608.44	1096.78
608.79	1090.46
609.14	1106.37
609.49	1116.67
609.84	1108.01
610.18	1106.14
610.53	1109.18
610.88	1095.84
611.23	1084.84
611.57	1079.46
611.92	1084.37
612.27	1086.24
612.62	1083.67
612.96	1084.37
613.31	1089.05
613.66	1083.90
614.00	1082.03
614.35	1088.35
614.70	1088.12
615.05	1086.24
615.39	1087.41
615.74	1089.52
616.09	1076.41
616.43	1076.65
616.78	1086.94
617.13	1096.78
617.47	1091.16
617.82	1096.31
618.17	1099.82
618.51	1100.52
618.86	1100.75
619.21	1107.78
619.55	1113.63
619.90	1115.50
620.25	1108.71
620.59	1101.46
620.94	1101.22
621.29	1098.41
621.63	1094.90
621.98	1096.07
622.32	1096.31
622.67	1093.26
623.02	1094.67
623.36	1093.50
623.71	1099.58
624.05	1097.24
624.40	1088.82
624.75	1087.18
625.09	1088.12
625.44	1072.67
625.78	1079.22
626.13	1079.92
626.48	1086.71
626.82	1084.60
627.17	1097.01
627.51	1093.97
627.86	1093.97
628.20	1091.86
628.55	1098.88
628.89	1093.97
629.24	1091.16
629.58	1096.31
629.93	1091.86
630.28	1092.80
630.62	1103.09
630.97	1099.35
631.31	1104.73
631.66	1095.37
632.00	1091.16
632.35	1083.43
632.69	1091.63
633.04	1085.31
633.38	1097.01
633.73	1100.99
634.07	1093.73
634.42	1083.20
634.76	1082.03
635.11	1082.97
635.45	1077.58
635.79	1074.07
636.14	1077.35
636.48	1075.94
636.83	1069.39
637.17	1070.33
637.52	1082.97
637.86	1086.24
638.21	1082.97
638.55	1086.48
638.89	1076.65
639.24	1071.73
639.58	1075.01
639.93	1083.90
640.27	1093.73
640.61	1091.16
640.96	1092.09
641.30	1095.14
641.65	1088.12
641.99	1079.22
642.33	1097.01
642.68	1088.82
643.02	1087.18
643.37	1090.69
643.71	1083.43
644.05	1071.97
644.40	1073.14
644.74	1067.28
645.08	1077.11
645.43	1080.39
645.77	1083.90
646.11	1092.33
646.46	1097.48
646.80	1089.99
647.14	1093.97
647.49	1088.82
647.83	1091.16
648.17	1091.16
648.52	1094.43
648.86	1091.16
649.20	1099.58
649.55	1092.33
649.89	1086.71
650.23	1080.86
650.57	1083.43
650.92	1088.12
651.26	1089.52
651.60	1083.43
651.95	1085.07
652.29	1079.92
652.63	1078.99
652.97	1083.90
653.32	1094.67
653.66	1096.31
654.00	1106.84
654.34	1091.86
654.69	1088.35
655.03	1078.52
655.37	1073.14
655.71	1069.39
656.05	1073.84
656.40	1081.33
656.74	1090.69
657.08	1099.35
657.42	1095.14
657.76	1102.86
658.11	1094.20
658.45	1094.20
658.79	1096.78
659.13	1097.01
659.47	1094.67
659.82	1101.46
660.16	1093.03
660.50	1089.52
660.84	1095.84
661.18	1092.80
661.52	1083.43
661.87	1093.50
662.21	1091.63
662.55	1082.73
662.89	1088.58
663.23	1086.01
663.57	1083.43
663.91	1088.58
664.25	1087.18
664.60	1078.99
664.94	1079.92
665.28	1075.94
665.62	1063.07
665.96	1067.52
666.30	1066.82
666.64	1067.28
666.98	1068.92
667.32	1073.37
667.66	1075.01
668.01	1079.69
668.35	1081.56
668.69	1085.07
669.03	1078.75
669.37	1082.03
669.71	1077.58
670.05	1085.31
670.39	1083.43
670.73	1088.35
671.07	1081.56
671.41	1091.63
671.75	1084.37
672.09	1072.90
672.43	1069.62
672.77	1075.94
673.11	1078.75
673.45	1083.67
673.79	1091.63
674.13	1100.29
674.47	1103.09
674.81	1095.84
675.15	1088.82
675.49	1092.80
675.83	1094.43
676.17	1087.18
676.51	1086.48
676.85	1093.03
677.19	1088.58
677.53	1082.26
677.87	1080.39
678.21	1079.46
678.55	1077.82
678.89	1073.14
679.23	1069.86
679.57	1085.54
679.90	1087.41
680.24	1080.86
680.58	1080.86
680.92	1093.03
681.26	1083.20
681.60	1087.88
681.94	1093.73
682.28	1100.99
682.62	1090.92
682.96	1092.33
683.29	1089.99
683.63	1092.09
683.97	1089.29
684.31	1089.29
684.65	1091.86
684.99	1093.73
685.33	1089.05
685.67	1086.71
686.00	1083.20
686.34	1079.22
686.68	1076.88
687.02	1081.80
687.36	1084.14
687.70	1083.20
688.03	1084.14
688.37	1078.05
688.71	1072.20
689.05	1068.69
689.39	1066.58
689.72	1058.62
690.06	1067.05
690.40	1070.33
690.74	1074.77
691.08	1084.37
691.41	1086.94
691.75	1084.37
692.09	1085.31
692.43	1090.22
692.76	1087.18
693.10	1100.05
693.44	1096.07
693.78	1093.97
694.11	1083.67
694.45	1081.33
694.79	1067.05
695.13	1071.50
695.46	1074.77
695.80	1079.46
696.14	1080.63
696.48	1078.99
696.81	1072.43
697.15	1071.50
697.49	1064.24
697.82	1067.28
698.16	1069.39
698.50	1065.18
698.83	1056.05
699.17	1064.94
699.51	1052.30
699.84	1055.58
700.18	1061.43
700.52	1069.86
700.85	1078.75
701.19	1087.18
701.53	1092.33
701.86	1094.20
702.20	1086.94
702.54	1073.84
702.87	1073.60
703.21	1067.05
703.55	1058.86
703.88	1056.05
704.22	1057.69
704.55	1056.28
704.89	1063.07
705.23	1064.94
705.56	1072.90
705.90	1076.65
706.23	1078.99
706.57	1075.24
706.91	1078.52
707.24	1074.77
707.58	1062.84
707.91	1067.28
708.25	1059.09
708.58	1060.96
708.92	1064.24
709.26	1078.05
709.59	1076.18
709.93	1077.58
710.26	1081.56
710.60	1077.35
710.93	1071.97
711.27	1070.09
711.60	1074.31
711.94	1074.77
712.27	1083.67
712.61	1091.16
712.94	1085.31
713.28	1097.01
713.61	1096.07
713.95	1094.20
714.28	1088.35
714.62	1093.50
714.95	1081.09
715.29	1078.05
715.62	1081.09
715.96	1082.73
716.29	1087.41
716.63	1093.50
716.96	1088.82
717.29	1077.82
717.63	1077.82
717.96	1074.31
718.30	1064.01
718.63	1071.73
718.97	1079.92
719.30	1075.01
719.63	1081.09
719.97	1092.56
720.30	1085.77
720.64	1077.58
720.97	1079.69
721.30	1073.84
721.64	1069.62
721.97	1074.07
722.31	1079.46
722.64	1071.97
722.97	1072.43
723.31	1066.58
723.64	1064.01
723.97	1072.20
724.31	1083.67
724.64	1083.67
724.98	1092.09
725.31	1104.26
725.64	1104.26
725.98	1108.01
726.31	1111.29
726.64	1101.69
726.97	1089.99
727.31	1078.05
727.64	1074.54
727.97	1082.26
728.31	1078.75
728.64	1067.52
728.97	1071.73
729.31	1064.01
729.64	1056.99
729.97	1064.01
730.30	1077.58
730.64	1078.05
730.97	1084.14
731.30	1080.86
731.63	1088.82
731.97	1089.75
732.30	1085.77
732.63	1078.99
732.96	1085.54
733.30	1077.35
733.63	1083.90
733.96	1087.88
734.29	1090.92
734.63	1083.43
734.96	1086.48
735.29	1084.60
735.62	1086.24
735.95	1081.80
736.29	1085.54
736.62	1081.56
736.95	1082.03
737.28	1082.03
737.61	1091.63
737.94	1089.75
738.28	1092.56
738.61	1086.94
738.94	1085.07
739.27	1085.77
739.60	1083.90
739.93	1082.50
740.27	1078.28
740.60	1087.41
740.93	1081.80
741.26	1086.48
741.59	1089.99
741.92	1099.58
742.25	1099.82
742.58	1096.31
742.91	1082.03
743.25	1077.58
743.58	1074.31
743.91	1066.35
744.24	1074.31
744.57	1091.39
744.90	1092.80
745.23	1089.75
745.56	1085.31
745.89	1079.69
746.22	1070.80
746.55	1072.90
746.88	1075.71
747.21	1079.92
747.54	1088.58
747.87	1086.94
748.20	1079.92
748.53	1073.84
748.87	1067.52
749.20	1061.43
749.53	1074.54
749.86	1079.69
750.19	1089.05
750.52	1091.86
750.85	1092.33
751.18	1089.52
751.51	1086.94
751.84	1087.65
752.16	1092.56
752.49	1096.78
752.82	1092.80
753.15	1099.58
753.48	1084.14
753.81	1083.20
754.14	1088.35
754.47	1089.99
754.80	1078.99
755.13	1090.92
755.46	1082.97
755.79	1067.05
756.12	1069.39
756.45	1081.56
756.78	1075.01
757.11	1076.88
757.43	1072.90
757.76	1063.77
758.09	1058.62
758.42	1058.39
758.75	1065.65
759.08	1068.92
759.41	1072.20
759.74	1082.03
760.07	1089.99
760.39	1079.22
760.72	1086.48
761.05	1083.90
761.38	1073.60
761.71	1074.77
762.04	1075.48
762.36	1069.16
762.69	1068.92
763.02	1064.01
763.35	1060.26
763.68	1064.48
764.01	1066.11
764.33	1071.50
764.66	1078.28
764.99	1084.60
765.32	1089.52
765.65	1096.31
765.97	1094.20
766.30	1083.20
766.63	1073.60
766.96	1075.71
767.28	1079.46
767.61	1078.75
767.94	1085.31
768.27	1086.94
768.59	1086.71
768.92	1076.65
769.25	1071.26
769.58	1064.71
769.90	1062.84
770.23	1054.88
770.56	1060.03
770.89	1066.11
771.21	1071.97
771.54	1074.31
771.87	1075.01
772.19	1081.09
772.52	1076.41
772.85	1083.43
773.17	1074.54
773.50	1071.97
773.83	1061.43
774.15	1063.54
774.48	1057.22
774.81	1062.60
775.13	1073.37
775.46	1071.50
775.79	1070.56
776.11	1071.03
776.44	1071.50
776.77	1067.05
777.09	1068.92
777.42	1075.48
777.74	1072.67
778.07	1072.20
778.40	1068.69
778.72	1072.20
779.05	1077.11
779.37	1078.52
779.70	1086.24
780.03	1093.03
780.35	1090.92
780.68	1080.39
781.00	1087.41
781.33	1080.16
781.65	1078.05
781.98	1070.56
782.31	1076.88
782.63	1071.97
782.96	1073.37
783.28	1074.77
783.61	1089.29
783.93	1080.63
784.26	1079.92
784.58	1081.09
784.91	1078.52
785.23	1066.35
785.56	1073.37
785.88	1083.67
786.21	1089.05
786.53	1088.12
786.86	1097.48
787.18	1102.63
787.51	1097.24
787.83	1090.22
788.16	1078.52
788.48	1075.01
788.81	1063.31
789.13	1059.56
789.46	1061.43
789.78	1071.97
790.10	1068.45
790.43	1074.54
790.75	1081.33
791.08	1085.77
791.40	1088.12
791.73	1090.92
792.05	1089.52
792.37	1082.97
792.70	1073.60
793.02	1067.75
793.35	1071.26
793.67	1072.67
793.99	1073.84
794.32	1074.07
794.64	1076.88
794.96	1078.75
795.29	1080.16
795.61	1088.12
795.93	1083.90
796.26	1083.67
796.58	1074.07
796.91	1072.43
797.23	1071.97
797.55	1077.11
797.87	1086.48
798.20	1086.24
798.52	1081.33
798.84	1069.16
799.17	1074.07
799.49	1067.99
799.81	1075.94
800.14	1087.88
800.46	1089.75
800.78	1080.63
801.10	1086.01
801.43	1080.16
801.75	1072.43
802.07	1062.60
802.40	1067.99
802.72	1060.50
803.04	1066.35
803.36	1062.84
803.69	1065.18
804.01	1059.33
804.33	1059.79
804.65	1068.45
804.97	1064.94
805.30	1068.22
805.62	1071.97
805.94	1078.28
806.26	1068.45
806.58	1069.39
806.91	1065.88
807.23	1065.88
807.55	1057.92
807.87	1058.16
808.19	1056.99
808.52	1067.99
808.84	1071.50
809.16	1072.43
809.48	1060.50
809.80	1063.31
810.12	1061.43
810.44	1061.67
810.77	1059.56
811.09	1060.96
811.41	1065.18
811.73	1070.09
812.05	1070.09
812.37	1067.99
812.69	1079.92
813.01	1075.71
813.33	1071.03
813.66	1077.58
813.98	1090.22
814.30	1087.65
814.62	1087.65
814.94	1081.56
815.26	1073.37
815.58	1075.48
815.90	1072.43
816.22	1080.86
816.54	1094.20
816.86	1095.84
817.18	1091.63
817.50	1094.90
817.82	1085.77
818.14	1067.99
818.46	1063.31
818.78	1066.82
819.10	1067.52
819.42	1069.86
819.74	1086.48
820.06	1098.88
820.38	1089.75
820.70	1087.41
821.02	1087.65
821.34	1092.09
821.66	1080.16
821.98	1082.50
822.30	1087.18
822.62	1080.16
822.94	1060.26
823.26	1062.37
823.58	1056.99
823.90	1057.92
824.22	1068.69
824.54	1076.88
824.86	1072.43
825.18	1082.73
825.50	1076.65
825.81	1072.67
826.13	1071.03
826.45	1086.71
826.77	1089.75
827.09	1092.09
827.41	1091.63
827.73	1093.03
828.05	1083.43
828.36	1068.69
828.68	1059.56
829.00	1065.65
829.32	1060.50
829.64	1059.79
829.96	1069.16
830.28	1064.94
830.59	1056.75
830.91	1058.39
831.23	1063.31
831.55	1063.54
831.87	1080.63
832.19	1088.35
832.50	1088.58
832.82	1085.54
833.14	1084.14
833.46	1072.67
833.78	1073.37
834.09	1083.43
834.41	1076.41
834.73	1068.22
835.05	1068.69
835.36	1067.75
835.68	1061.90
836.00	1081.09
836.32	1081.33
836.63	1089.99
836.95	1088.12
837.27	1095.60
837.59	1080.63
837.90	1087.65
838.22	1094.90
838.54	1085.54
838.85	1072.43
839.17	1073.14
839.49	1075.24
839.80	1057.92
840.12	1067.28
840.44	1070.09
840.76	1075.24
841.07	1070.56
841.39	1080.63
841.71	1082.73
842.02	1085.31
842.34	1085.07
842.65	1077.35
842.97	1086.01
843.29	1087.88
843.60	1086.01
843.92	1086.24
844.24	1097.48
844.55	1090.92
844.87	1082.03
845.18	1086.24
845.50	1082.26
845.82	1072.67
846.13	1066.58
846.45	1070.33
846.76	1065.41
847.08	1071.50
847.40	1083.43
847.71	1086.71
848.03	1084.84
848.34	1085.77
848.66	1078.99
848.97	1068.45
849.29	1054.88
849.60	1062.60
849.92	1072.67
850.24	1083.90
850.55	1084.37
850.87	1097.01
851.18	1088.12
851.50	1089.99
851.81	1073.37
852.13	1078.28
852.44	1077.82
852.76	1084.37
853.07	1072.43
853.39	1081.33
853.70	1092.56
854.01	1091.16
854.33	1088.35
854.64	1095.14
854.96	1095.60
855.27	1090.22
855.59	1090.22
855.90	1074.31
856.22	1067.05
856.53	1064.71
856.84	1056.28
857.16	1051.84
857.47	1061.67
857.79	1066.58
858.10	1060.96
858.41	1055.35
858.73	1063.54
859.04	1064.24
859.36	1062.37
859.67	1067.99
859.98	1075.48
860.30	1071.73
860.61	1081.09
860.92	1083.67
861.24	1082.97
861.55	1086.94
861.87	1079.46
862.18	1080.39
862.49	1083.20
862.81	1083.90
863.12	1079.22
863.43	1087.18
863.74	1079.46
864.06	1077.35
864.37	1073.37
864.68	1078.05
865.00	1067.75
865.31	1065.18
865.62	1060.96
865.94	1068.69
866.25	1065.41
866.56	1078.28
866.87	1081.09
867.19	1084.14
867.50	1084.60
867.81	1090.92
868.12	1091.86
868.44	1087.88
868.75	1093.97
869.06	1089.52
869.37	1082.03
869.68	1075.01
870.00	1089.29
870.31	1081.09
870.62	1079.69
870.93	1074.54
871.24	1080.63
871.56	1074.07
871.87	1070.56
872.18	1083.90
872.49	1085.77
872.80	1082.73
873.12	1082.50
873.43	1093.03
873.74	1073.60
874.05	1082.50
874.36	1086.94
874.67	1086.24
874.98	1087.18
875.29	1085.31
875.61	1087.88
875.92	1088.12
876.23	1093.97
876.54	1086.01
876.85	1095.37
877.16	1091.86
877.47	1085.54
877.78	1072.90
878.09	1079.46
878.40	1079.92
878.72	1070.80
879.03	1072.43
879.34	1071.50
879.65	1065.18
879.96	1065.88
880.27	1068.45
880.58	1067.52
880.89	1075.01
881.20	1075.24
881.51	1086.71
881.82	1092.09
882.13	1092.80
882.44	1098.88
882.75	1100.52
883.06	1096.78
883.37	1085.54
883.68	1089.29
883.99	1081.33
884.30	1076.18
884.61	1065.41
884.92	1071.73
885.23	1068.69
885.54	1078.99
885.85	1076.88
886.16	1082.50
886.47	1083.43
886.78	1087.18
887.08	1077.35
887.39	1076.65
887.70	1071.73
888.01	1072.90
888.32	1074.31
888.63	1071.50
888.94	1086.94
889.25	1088.12
889.56	1089.75
889.87	1092.80
890.17	1101.22
890.48	1093.03
890.79	1096.31
891.10	1096.31
891.41	1088.82
891.72	1076.88
892.03	1072.90
892.34	1077.35
892.64	1079.22
892.95	1078.99
893.26	1090.69
893.57	1093.50
893.88	1074.07
894.18	1065.18
894.49	1065.41
894.80	1057.69
895.11	1056.28
895.42	1068.92
895.72	1076.18
896.03	1080.63
896.34	1084.84
896.65	1085.07
896.96	1083.20
897.26	1081.33
897.57	1081.33
897.88	1073.84
898.19	1068.69
898.49	1066.35
898.80	1066.82
899.11	1050.90
899.41	1057.69
899.72	1068.69
900.03	1074.31
900.34	1086.01
900.64	1100.05
900.95	1105.20
901.26	1107.54
901.56	1101.46
901.87	1081.56
902.18	1074.07
902.48	1060.96
902.79	1046.92
903.10	1047.39
903.40	1062.60
903.71	1068.22
904.02	1075.48
904.32	1075.94
904.63	1085.77
904.94	1082.50
905.24	1076.65
905.55	1076.41
905.85	1093.03
906.16	1092.09
906.47	1082.73
906.77	1083.67
907.08	1082.26
907.38	1070.33
907.69	1062.84
908.00	1072.43
908.30	1078.52
908.61	1082.03
908.91	1089.99
909.22	1098.41
909.52	1097.24
909.83	1099.58
910.14	1097.95
910.44	1089.29
910.75	1074.54
911.05	1069.16
911.36	1060.50
911.66	1056.75
911.97	1061.90
912.27	1065.18
912.58	1060.96
912.88	1068.22
913.19	1070.80
913.49	1060.73
913.80	1069.16
914.10	1075.48
914.41	1082.73
914.71	1083.90
915.01	1093.97
915.32	1089.29
915.62	1087.18
915.93	1076.18
916.23	1072.43
916.54	1070.80
916.84	1076.18
917.15	1082.50
917.45	1082.03
917.75	1088.12
918.06	1088.12
918.36	1078.99
918.67	1075.24
918.97	1080.86
919.27	1074.07
919.58	1078.52
919.88	1083.90
920.18	1086.94
920.49	1077.35
920.79	1083.90
921.10	1079.69
921.40	1083.43
921.70	1078.75
922.01	1091.39
922.31	1080.16
922.61	1082.97
922.92	1081.80
923.22	1087.18
923.52	1072.43
923.82	1080.63
924.13	1077.35
924.43	1086.01
924.73	1078.52
925.04	1080.16
925.34	1082.97
925.64	1085.07
925.94	1073.84
926.25	1077.35
926.55	1080.86
926.85	1078.75
927.15	1075.71
927.46	1084.14
927.76	1094.90
928.06	1095.60
928.36	1092.80
928.67	1095.60
928.97	1087.88
929.27	1079.46
929.57	1078.99
929.87	1084.14
930.18	1077.82
930.48	1069.16
930.78	1068.45
931.08	1071.73
931.38	1073.60
931.69	1085.07
931.99	1094.90
932.29	1110.12
932.59	1105.44
932.89	1100.29
933.19	1094.20
933.49	1094.20
933.80	1072.43
934.10	1069.62
934.40	1063.77
934.70	1058.62
935.00	1051.13
935.30	1044.35
935.60	1053.01
935.90	1060.50
936.20	1057.92
936.50	1058.39
936.81	1064.94
937.11	1060.73
937.41	1062.84
937.71	1074.31
938.01	1082.73
938.31	1089.75
938.61	1088.58
938.91	1078.99
939.21	1068.22
939.51	1066.82
939.81	1066.58
940.11	1071.26
940.41	1079.69
940.71	1086.24
941.01	1091.39
941.31	1088.58
941.61	1084.60
941.91	1078.52
942.21	1076.18
942.51	1066.35
942.81	1079.22
943.11	1082.26
943.41	1085.54
943.71	1084.84
944.01	1083.67
944.31	1075.48
944.61	1070.09
944.90	1069.62
945.20	1072.90
945.50	1073.84
945.80	1063.54
946.10	1070.56
946.40	1070.09
946.70	1068.22
947.00	1064.94
947.30	1069.16
947.60	1066.58
947.89	1070.56
948.19	1061.43
948.49	1066.82
948.79	1073.60
949.09	1079.46
949.39	1067.52
949.69	1072.90
949.98	1077.35
950.28	1077.82
950.58	1074.77
950.88	1082.97
951.18	1085.31
951.48	1081.80
951.77	1072.20
952.07	1071.97
952.37	1072.67
952.67	1073.84
952.97	1072.90
953.26	1075.24
953.56	1081.80
953.86	1089.05
954.16	1091.16
954.45	1087.18
954.75	1095.37
955.05	1085.77
955.35	1083.90
955.64	1083.67
955.94	1088.58
956.24	1088.12
956.54	1089.29
956.83	1088.12
957.13	1093.97
957.43	1094.90
957.72	1092.33
958.02	1095.14
958.32	1102.63
958.61	1096.07
958.91	1096.31
959.21	1096.31
959.50	1095.14
959.80	1084.84
960.10	1080.86
960.39	1076.65
960.69	1075.94
960.99	1083.90
961.28	1079.92
961.58	1076.88
961.87	1084.14
962.17	1082.50
962.47	1067.28
962.76	1073.84
963.06	1072.43
963.36	1067.75
963.65	1076.65
963.95	1089.05
964.24	1088.35
964.54	1093.73
964.83	1102.63
965.13	1094.20
965.42	1085.07
965.72	1082.97
966.02	1078.28
966.31	1069.86
966.61	1068.92
966.90	1071.03
967.20	1057.45
967.49	1054.88
967.79	1056.28
968.08	1063.54
968.38	1066.58
968.67	1085.77
968.97	1095.60
969.26	1090.22
969.56	1086.71
969.85	1083.67
970.15	1075.48
970.44	1075.24
970.74	1088.12
971.03	1082.97
971.32	1087.41
971.62	1091.63
971.91	1092.33
972.21	1083.67
972.50	1075.01
972.80	1059.09
973.09	1056.99
973.38	1061.43
973.68	1057.22
973.97	1067.75
974.27	1081.80
974.56	1081.80
974.85	1075.71
975.15	1078.99
975.44	1078.05
975.73	1085.31
976.03	1081.80
976.32	1075.48
976.61	1082.26
976.91	1073.14
977.20	1064.01
977.49	1061.90
977.79	1063.31
978.08	1055.35
978.37	1067.99
978.67	1067.75
978.96	1082.97
979.25	1088.58
979.55	1085.77
979.84	1092.09
980.13	1082.97
980.42	1080.63
980.72	1084.14
981.01	1087.41
981.30	1077.58
981.59	1088.58
981.89	1089.05
982.18	1078.05
982.47	1081.09
982.76	1083.43
983.06	1087.41
983.35	1079.92
983.64	1086.71
983.93	1085.31
984.22	1081.56
984.52	1076.88
984.81	1076.65
985.10	1067.75
985.39	1068.69
985.68	1071.26
985.97	1080.63
986.27	1090.46
986.56	1094.67
986.85	1092.80
987.14	1093.26
987.43	1081.56
987.72	1077.35
988.01	1080.63
988.31	1081.56
988.60	1081.09
988.89	1089.05
989.18	1083.43
989.47	1086.24
989.76	1078.52
990.05	1073.60
990.34	1067.52
990.63	1071.26
990.92	1081.09
991.21	1084.84
991.51	1087.88
991.80	1078.99
992.09	1078.05
992.38	1068.45
992.67	1073.84
992.96	1073.14
993.25	1089.52
993.54	1089.52
993.83	1086.71
994.12	1081.33
994.41	1082.73
994.70	1072.67
994.99	1062.84
995.28	1056.75
995.57	1062.37
995.86	1068.22
996.15	1067.75
996.44	1068.92
996.73	1078.05
997.02	1069.86
997.31	1064.71
997.59	1071.03
997.88	1075.94
998.17	1068.22
998.46	1068.69
998.75	1067.05
999.04	1069.62
999.33	1081.80
999.62	1086.01
999.91	1094.90
1000.20	1091.86
1000.49	1078.05
1000.77	1074.77
1001.06	1076.41
1001.35	1076.88
1001.64	1077.58
1001.93	1087.65
1002.22	1082.03
1002.51	1085.07
1002.79	1084.84
1003.08	1085.07
1003.37	1085.07
1003.66	1086.01
1003.95	1081.80
1004.23	1086.01
1004.52	1092.09
1004.81	1092.09
1005.10	1080.86
1005.39	1078.99
1005.67	1061.20
1005.96	1054.18
1006.25	1052.30
1006.54	1061.67
1006.83	1064.71
1007.11	1082.03
1007.40	1082.97
1007.69	1076.41
1007.97	1078.99
1008.26	1080.86
1008.55	1081.56
1008.84	1088.12
1009.12	1094.90
1009.41	1084.60
1009.70	1073.60
1009.98	1063.31
1010.27	1068.22
1010.56	1067.75
1010.85	1072.90
1011.13	1084.84
1011.42	1085.07
1011.71	1078.99
1011.99	1082.26
1012.28	1079.69
1012.56	1081.56
1012.85	1077.11
1013.14	1071.50
1013.42	1063.31
1013.71	1066.58
1014.00	1061.67
1014.28	1069.16
1014.57	1075.94
1014.85	1082.26
1015.14	1094.67
1015.43	1092.33
1015.71	1093.03
1016.00	1078.52
1016.28	1086.94
1016.57	1075.94
1016.85	1081.33
1017.14	1078.05
1017.43	1088.82
1017.71	1080.16
1018.00	1095.14
1018.28	1092.56
1018.57	1093.03
1018.85	1092.33
1019.14	1089.29
1019.42	1077.58
1019.71	1078.28
1019.99	1066.11
1020.28	1075.94
1020.56	1081.09
1020.85	1078.52
1021.13	1081.33
1021.42	1088.35
1021.70	1079.92
1021.99	1086.01
1022.27	1077.58
1022.55	1128.14
1022.84	1045.05
>>>>>End Processed Spectral Data<<<<<
