SpectraSuite Data File
++++++++++++++++++++++++++++++++++++
Date: Mon Aug 26 10:24:47 PDT 2019
User: corrico
Dark Spectrum Present: No
Reference Spectrum Present: No
Number of Sampled Component Spectra: 1
Spectrometers: USB2+H06089
Integration Time (usec): 10000 (USB2+H06089)
Spectra Averaged: 2 (USB2+H06089)
Boxcar Smoothing: 2 (USB2+H06089)
Correct for Electrical Dark: No (USB2+H06089)
Strobe/Lamp Enabled: No (USB2+H06089)
Correct for Detector Non-linearity: No (USB2+H06089)
Correct for Stray Light: No (USB2+H06089)
Number of Pixels in Processed Spectrum: 2048
>>>>>Begin Processed Spectral Data<<<<<
339.70	1016.96
340.07	1016.96
340.45	979.05
340.82	962.19
341.19	935.98
341.57	904.38
341.94	895.25
342.31	891.74
342.69	881.45
343.06	875.83
343.43	886.83
343.81	882.15
344.18	890.57
344.55	899.47
344.93	908.13
345.30	895.49
345.67	911.40
346.04	916.09
346.42	922.64
346.79	927.09
347.16	955.87
347.54	965.00
347.91	986.07
348.28	994.73
348.65	1016.73
349.03	1021.64
349.40	1031.01
349.77	1026.32
350.14	1036.39
350.52	1035.22
350.89	1048.79
351.26	1042.24
351.63	1054.88
352.01	1058.16
352.38	1072.67
352.75	1069.86
353.12	1089.99
353.50	1086.94
353.87	1089.99
354.24	1085.77
354.61	1081.80
354.98	1071.26
355.36	1076.65
355.73	1084.60
356.10	1088.12
356.47	1093.03
356.84	1105.90
357.22	1100.99
357.59	1092.80
357.96	1093.03
358.33	1098.88
358.70	1089.99
359.08	1100.75
359.45	1108.71
359.82	1112.69
360.19	1118.07
360.56	1119.01
360.94	1115.73
361.31	1112.46
361.68	1103.33
362.05	1090.69
362.42	1090.46
362.79	1086.94
363.16	1093.97
363.54	1099.35
363.91	1103.09
364.28	1105.67
364.65	1110.82
365.02	1100.75
365.39	1098.41
365.76	1094.90
366.14	1094.20
366.51	1089.05
366.88	1081.80
367.25	1078.75
367.62	1080.16
367.99	1082.03
368.36	1074.31
368.73	1075.01
369.10	1076.18
369.48	1071.26
369.85	1062.37
370.22	1078.75
370.59	1088.58
370.96	1090.69
371.33	1094.90
371.70	1099.82
372.07	1091.63
372.44	1097.48
372.81	1101.46
373.18	1104.26
373.55	1098.18
373.93	1094.20
374.30	1092.09
374.67	1081.56
375.04	1083.20
375.41	1090.22
375.78	1099.58
376.15	1097.24
376.52	1111.75
376.89	1102.39
377.26	1098.88
377.63	1087.88
378.00	1084.84
378.37	1072.90
378.74	1088.12
379.11	1095.37
379.48	1099.35
379.85	1105.20
380.22	1115.73
380.59	1118.54
380.96	1119.71
381.33	1113.86
381.70	1104.73
382.07	1092.09
382.44	1078.05
382.81	1072.20
383.18	1077.11
383.55	1080.63
383.92	1089.75
384.29	1088.82
384.66	1088.12
385.03	1088.12
385.40	1090.22
385.77	1092.56
386.14	1108.01
386.51	1110.12
386.88	1116.20
387.25	1110.35
387.62	1113.63
387.99	1113.39
388.36	1113.16
388.73	1119.24
389.10	1124.63
389.46	1119.01
389.83	1111.99
390.20	1119.71
390.57	1114.09
390.94	1115.73
391.31	1114.56
391.68	1117.61
392.05	1111.29
392.42	1113.39
392.79	1106.61
393.16	1124.39
393.53	1124.86
393.89	1136.10
394.26	1133.05
394.63	1138.20
395.00	1122.52
395.37	1123.93
395.74	1118.07
396.11	1126.27
396.48	1130.48
396.84	1132.82
397.21	1127.20
397.58	1133.05
397.95	1128.37
398.32	1124.39
398.69	1126.03
399.06	1140.07
399.42	1130.71
399.79	1128.61
400.16	1136.80
400.53	1143.82
400.90	1141.48
401.27	1151.31
401.64	1158.80
402.00	1166.52
402.37	1174.48
402.74	1181.03
403.11	1190.16
403.48	1195.08
403.84	1203.50
404.21	1205.38
404.58	1222.93
404.95	1231.36
405.32	1243.99
405.68	1252.42
406.05	1272.32
406.42	1282.85
406.79	1298.53
407.16	1328.96
407.52	1359.15
407.89	1386.53
408.26	1401.51
408.63	1430.07
408.99	1456.28
409.36	1482.03
409.73	1499.11
410.10	1532.82
410.47	1565.82
410.83	1605.61
411.20	1640.72
411.57	1687.29
411.94	1744.17
412.30	1810.87
412.67	1851.36
413.04	1924.15
413.40	1999.75
413.77	2063.42
414.14	2117.95
414.51	2206.89
414.87	2277.11
415.24	2366.28
415.61	2473.48
415.97	2586.06
416.34	2694.89
416.71	2803.96
417.08	2934.80
417.44	3052.53
417.81	3205.83
418.18	3356.33
418.54	3529.29
418.91	3687.75
419.28	3897.93
419.64	4079.55
420.01	4278.97
420.38	4506.00
420.74	4701.43
421.11	4951.17
421.48	5194.35
421.84	5492.77
422.21	5759.82
422.58	6087.73
422.94	6369.07
423.31	6696.04
423.68	6999.84
424.04	7366.84
424.41	7737.58
424.77	8112.76
425.14	8484.21
425.51	8898.25
425.87	9379.70
426.24	9852.95
426.61	10378.17
426.97	11053.41
427.34	11663.59
427.70	12243.11
428.07	12833.86
428.44	13475.17
428.80	14075.51
429.17	14732.03
429.53	15384.11
429.90	16222.96
430.27	16935.41
430.63	17672.21
431.00	18500.53
431.36	19366.76
431.73	20100.75
432.09	20963.01
432.46	21825.50
432.83	22633.21
433.19	23413.31
433.56	24276.97
433.92	25117.46
434.29	25936.18
434.65	26831.67
435.02	27603.34
435.38	28416.21
435.75	28932.30
436.11	29619.95
436.48	30195.72
436.84	30948.20
437.21	31521.40
437.57	32258.67
437.94	32778.27
438.30	33151.35
438.67	33282.65
439.03	33402.25
439.40	33579.20
439.76	33549.00
440.13	33511.32
440.49	33615.24
440.86	33383.76
441.22	32990.32
441.59	32528.06
441.95	32060.66
442.32	31377.92
442.68	30862.77
443.05	30259.15
443.41	29652.25
443.78	28930.19
444.14	28232.95
444.51	27397.14
444.87	26836.35
445.24	26183.34
445.60	25576.67
445.96	24864.92
446.33	24387.91
446.69	23599.15
447.06	22977.98
447.42	22322.39
447.79	21634.27
448.15	20981.97
448.51	20377.64
448.88	19877.70
449.24	19340.31
449.61	18981.74
449.97	18540.09
450.33	18112.47
450.70	17512.82
451.06	17051.04
451.43	16524.65
451.79	16050.69
452.15	15653.50
452.52	15296.34
452.88	14938.24
453.24	14655.73
453.61	14333.21
453.97	13958.49
454.34	13552.64
454.70	13184.94
455.06	12779.56
455.43	12371.60
455.79	11929.94
456.15	11593.84
456.52	11215.61
456.88	10880.21
457.24	10511.11
457.61	10248.50
457.97	9953.13
458.33	9627.79
458.70	9312.52
459.06	8998.19
459.42	8711.94
459.79	8402.06
460.15	8158.64
460.51	7887.61
460.88	7643.02
461.24	7373.16
461.60	7138.17
461.96	6888.66
462.33	6677.55
462.69	6492.65
463.05	6320.62
463.42	6168.95
463.78	6019.39
464.14	5850.87
464.50	5696.16
464.87	5526.47
465.23	5368.49
465.59	5222.67
465.95	5100.50
466.32	4986.51
466.68	4888.91
467.04	4771.18
467.40	4657.90
467.77	4555.15
468.13	4431.80
468.49	4339.35
468.85	4276.63
469.22	4205.01
469.58	4108.81
469.94	4037.42
470.30	3953.63
470.66	3871.01
471.03	3767.33
471.39	3702.96
471.75	3636.72
472.11	3563.23
472.47	3477.80
472.84	3438.72
473.20	3388.86
473.56	3341.82
473.92	3273.71
474.28	3212.39
474.65	3159.02
475.01	3101.21
475.37	3026.55
475.73	2975.76
476.09	2936.67
476.45	2879.56
476.81	2819.41
477.18	2757.85
477.54	2711.98
477.90	2678.28
478.26	2620.93
478.62	2579.50
478.98	2565.23
479.34	2539.72
479.71	2483.07
480.07	2476.99
480.43	2448.20
480.79	2414.03
481.15	2376.58
481.51	2348.03
481.87	2317.36
482.23	2284.13
482.59	2238.25
482.96	2208.06
483.32	2182.55
483.68	2161.48
484.04	2148.85
484.40	2131.29
484.76	2104.14
485.12	2096.89
485.48	2065.76
485.84	2036.27
486.20	2018.71
486.56	1990.86
486.92	1960.43
487.28	1927.43
487.64	1909.64
488.00	1890.45
488.37	1875.47
488.73	1849.02
489.09	1833.58
489.45	1808.30
489.81	1776.70
490.17	1759.85
490.53	1739.72
490.89	1727.32
491.25	1707.89
491.61	1688.93
491.97	1675.82
492.33	1653.82
492.69	1619.65
493.05	1600.69
493.41	1602.10
493.77	1584.07
494.13	1578.93
494.49	1571.20
494.85	1563.48
495.21	1533.99
495.57	1521.58
495.93	1505.20
496.29	1499.58
496.64	1489.75
497.00	1494.90
497.36	1480.15
497.72	1469.86
498.08	1454.41
498.44	1441.30
498.80	1422.81
499.16	1419.07
499.52	1415.79
499.88	1408.53
500.24	1397.07
500.60	1394.26
500.96	1378.11
501.32	1364.30
501.68	1360.32
502.03	1360.09
502.39	1350.02
502.75	1337.38
503.11	1324.74
503.47	1316.08
503.83	1302.98
504.19	1285.42
504.55	1284.95
504.91	1290.10
505.26	1285.89
505.62	1278.17
505.98	1279.10
506.34	1266.23
506.70	1264.12
507.06	1259.91
507.42	1262.48
507.78	1261.08
508.13	1268.34
508.49	1257.34
508.85	1255.00
509.21	1247.27
509.57	1242.82
509.93	1241.65
510.28	1230.89
510.64	1220.82
511.00	1209.12
511.36	1195.31
511.72	1197.65
512.07	1199.06
512.43	1196.72
512.79	1211.93
513.15	1224.80
513.51	1215.44
513.86	1209.82
514.22	1210.06
514.58	1200.93
514.94	1197.42
515.30	1195.55
515.65	1201.87
516.01	1193.67
516.37	1190.16
516.73	1174.95
517.08	1182.67
517.44	1164.88
517.80	1166.99
518.16	1153.65
518.51	1153.88
518.87	1140.54
519.23	1155.52
519.59	1158.57
519.94	1169.57
520.30	1174.71
520.66	1170.97
521.01	1164.18
521.37	1153.18
521.73	1148.97
522.09	1148.27
522.44	1149.91
522.80	1157.39
523.16	1169.10
523.51	1170.74
523.87	1168.63
524.23	1171.91
524.58	1168.86
524.94	1161.37
525.30	1149.91
525.65	1141.25
526.01	1128.37
526.37	1121.82
526.72	1123.69
527.08	1132.82
527.44	1136.56
527.79	1144.05
528.15	1143.82
528.51	1142.88
528.86	1139.14
529.22	1138.90
529.58	1131.41
529.93	1124.63
530.29	1115.27
530.65	1113.86
531.00	1110.12
531.36	1124.39
531.71	1133.05
532.07	1129.54
532.43	1120.41
532.78	1121.58
533.14	1106.14
533.49	1096.54
533.85	1102.16
534.21	1109.65
534.56	1102.86
534.92	1102.63
535.27	1110.58
535.63	1111.29
535.98	1112.92
536.34	1111.75
536.69	1117.84
537.05	1103.09
537.41	1096.07
537.76	1086.24
538.12	1082.73
538.47	1079.22
538.83	1093.73
539.18	1098.18
539.54	1101.69
539.89	1105.90
540.25	1106.84
540.60	1092.56
540.96	1088.82
541.31	1093.50
541.67	1105.20
542.02	1093.73
542.38	1100.52
542.73	1100.52
543.09	1094.20
543.44	1083.20
543.80	1091.86
544.15	1100.75
544.51	1101.92
544.86	1106.84
545.22	1111.75
545.57	1111.99
545.93	1105.20
546.28	1115.27
546.64	1113.63
546.99	1115.73
547.35	1117.61
547.70	1122.05
548.05	1115.50
548.41	1120.88
548.76	1117.84
549.12	1116.67
549.47	1119.24
549.83	1118.31
550.18	1107.54
550.53	1110.12
550.89	1105.90
551.24	1099.58
551.60	1097.01
551.95	1104.03
552.30	1087.65
552.66	1086.71
553.01	1086.24
553.37	1081.80
553.72	1086.48
554.07	1090.92
554.43	1100.52
554.78	1101.69
555.13	1103.56
555.49	1102.16
555.84	1105.44
556.19	1098.41
556.55	1094.90
556.90	1096.54
557.26	1089.99
557.61	1099.82
557.96	1098.65
558.32	1109.18
558.67	1118.31
559.02	1119.48
559.37	1115.97
559.73	1124.86
560.08	1119.95
560.43	1110.58
560.79	1105.20
561.14	1105.90
561.49	1089.75
561.85	1082.73
562.20	1079.69
562.55	1084.14
562.90	1076.18
563.26	1082.26
563.61	1076.65
563.96	1080.16
564.32	1078.28
564.67	1078.28
565.02	1088.58
565.37	1099.58
565.73	1095.14
566.08	1095.84
566.43	1100.29
566.78	1102.39
567.14	1104.97
567.49	1107.07
567.84	1109.41
568.19	1112.69
568.54	1107.31
568.90	1103.80
569.25	1112.92
569.60	1109.18
569.95	1107.78
570.31	1110.12
570.66	1106.84
571.01	1100.05
571.36	1104.26
571.71	1110.12
572.06	1112.22
572.42	1117.14
572.77	1114.56
573.12	1110.82
573.47	1104.03
573.82	1100.29
574.18	1092.09
574.53	1095.84
574.88	1103.33
575.23	1108.24
575.58	1104.26
575.93	1105.20
576.28	1105.90
576.64	1096.07
576.99	1086.94
577.34	1084.14
577.69	1087.65
578.04	1088.82
578.39	1098.41
578.74	1106.84
579.09	1107.54
579.44	1104.26
579.80	1097.71
580.15	1092.56
580.50	1080.63
580.85	1086.24
581.20	1090.69
581.55	1091.16
581.90	1086.01
582.25	1104.03
582.60	1107.54
582.95	1098.65
583.30	1099.35
583.65	1107.31
584.00	1103.80
584.35	1105.20
584.71	1122.29
585.06	1126.73
585.41	1120.41
585.76	1106.84
586.11	1097.71
586.46	1097.01
586.81	1091.63
587.16	1093.03
587.51	1100.52
587.86	1097.48
588.21	1086.94
588.56	1086.01
588.91	1089.75
589.26	1091.63
589.61	1099.82
589.96	1100.52
590.31	1104.50
590.66	1093.73
591.01	1093.97
591.36	1083.67
591.71	1075.48
592.06	1077.11
592.41	1084.37
592.76	1084.37
593.10	1083.43
593.45	1083.67
593.80	1082.26
594.15	1088.82
594.50	1080.86
594.85	1088.12
595.20	1100.29
595.55	1100.05
595.90	1108.95
596.25	1112.22
596.60	1114.56
596.95	1109.18
597.30	1111.75
597.64	1140.07
597.99	1139.84
598.34	1136.10
598.69	1135.16
599.04	1133.05
599.39	1081.56
599.74	1081.09
600.09	1078.52
600.44	1093.26
600.78	1091.63
601.13	1101.22
601.48	1108.24
601.83	1113.63
602.18	1102.39
602.53	1096.54
602.88	1093.73
603.22	1089.05
603.57	1089.05
603.92	1095.37
604.27	1101.69
604.62	1100.99
604.97	1104.26
605.31	1097.48
605.66	1089.75
606.01	1097.95
606.36	1092.56
606.71	1092.09
607.05	1096.78
607.40	1099.35
607.75	1098.18
608.10	1106.37
608.44	1104.50
608.79	1100.05
609.14	1099.82
609.49	1090.69
609.84	1093.03
610.18	1104.26
610.53	1114.33
610.88	1116.20
611.23	1124.86
611.57	1122.52
611.92	1107.07
612.27	1102.86
612.62	1106.84
612.96	1109.65
613.31	1115.03
613.66	1121.35
614.00	1115.50
614.35	1109.41
614.70	1103.09
615.05	1091.16
615.39	1092.09
615.74	1096.31
616.09	1084.14
616.43	1075.24
616.78	1084.37
617.13	1081.33
617.47	1086.94
617.82	1094.20
618.17	1100.75
618.51	1100.99
618.86	1096.54
619.21	1089.05
619.55	1094.67
619.90	1092.09
620.25	1099.58
620.59	1102.16
620.94	1110.58
621.29	1109.88
621.63	1104.03
621.98	1098.41
622.32	1098.41
622.67	1086.48
623.02	1075.94
623.36	1082.50
623.71	1073.84
624.05	1081.56
624.40	1086.71
624.75	1099.12
625.09	1098.65
625.44	1101.69
625.78	1108.01
626.13	1111.52
626.48	1107.31
626.82	1106.84
627.17	1107.31
627.51	1093.73
627.86	1092.09
628.20	1087.65
628.55	1086.94
628.89	1088.12
629.24	1090.92
629.58	1088.12
629.93	1087.18
630.28	1088.35
630.62	1095.14
630.97	1098.88
631.31	1098.88
631.66	1105.90
632.00	1110.58
632.35	1105.44
632.69	1095.84
633.04	1095.37
633.38	1095.84
633.73	1097.95
634.07	1096.07
634.42	1106.14
634.76	1113.86
635.11	1104.97
635.45	1090.69
635.79	1082.03
636.14	1078.99
636.48	1071.73
636.83	1080.16
637.17	1086.48
637.52	1088.82
637.86	1083.20
638.21	1083.20
638.55	1088.35
638.89	1097.48
639.24	1098.41
639.58	1110.35
639.93	1113.63
640.27	1108.95
640.61	1110.12
640.96	1115.03
641.30	1111.99
641.65	1109.41
641.99	1101.92
642.33	1101.22
642.68	1098.88
643.02	1097.71
643.37	1101.22
643.71	1107.07
644.05	1097.48
644.40	1109.65
644.74	1109.65
645.08	1104.03
645.43	1109.88
645.77	1105.44
646.11	1098.65
646.46	1085.54
646.80	1084.84
647.14	1091.39
647.49	1103.33
647.83	1102.63
648.17	1107.78
648.52	1115.03
648.86	1099.82
649.20	1092.33
649.55	1086.24
649.89	1081.56
650.23	1082.97
650.57	1082.97
650.92	1088.12
651.26	1093.73
651.60	1096.54
651.95	1083.90
652.29	1082.50
652.63	1084.14
652.97	1089.29
653.32	1084.60
653.66	1085.54
654.00	1082.50
654.34	1085.07
654.69	1071.97
655.03	1080.86
655.37	1092.80
655.71	1105.20
656.05	1101.22
656.40	1105.44
656.74	1101.22
657.08	1096.78
657.42	1089.52
657.76	1084.84
658.11	1086.71
658.45	1100.29
658.79	1100.29
659.13	1100.05
659.47	1091.63
659.82	1083.43
660.16	1073.14
660.50	1074.31
660.84	1082.26
661.18	1096.31
661.52	1097.01
661.87	1098.88
662.21	1087.41
662.55	1084.14
662.89	1086.24
663.23	1090.69
663.57	1083.20
663.91	1098.18
664.25	1092.33
664.60	1086.48
664.94	1084.37
665.28	1084.37
665.62	1074.77
665.96	1075.24
666.30	1079.46
666.64	1081.56
666.98	1093.73
667.32	1091.63
667.66	1083.67
668.01	1075.71
668.35	1080.86
668.69	1079.46
669.03	1089.52
669.37	1107.07
669.71	1112.46
670.05	1106.37
670.39	1102.16
670.73	1092.80
671.07	1086.94
671.41	1084.84
671.75	1087.18
672.09	1081.56
672.43	1083.90
672.77	1086.24
673.11	1083.90
673.45	1087.18
673.79	1097.71
674.13	1098.65
674.47	1096.31
674.81	1090.92
675.15	1097.24
675.49	1100.99
675.83	1105.44
676.17	1105.20
676.51	1110.58
676.85	1096.78
677.19	1090.46
677.53	1087.41
677.87	1081.80
678.21	1094.20
678.55	1097.95
678.89	1093.03
679.23	1097.71
679.57	1095.60
679.90	1078.05
680.24	1082.03
680.58	1073.60
680.92	1066.35
681.26	1070.33
681.60	1075.24
681.94	1074.31
682.28	1081.33
682.62	1082.50
682.96	1081.56
683.29	1078.75
683.63	1068.69
683.97	1071.97
684.31	1066.82
684.65	1072.67
684.99	1073.14
685.33	1081.33
685.67	1080.63
686.00	1078.28
686.34	1077.82
686.68	1083.90
687.02	1080.39
687.36	1080.86
687.70	1092.09
688.03	1085.31
688.37	1088.35
688.71	1090.92
689.05	1092.09
689.39	1086.71
689.72	1087.41
690.06	1079.92
690.40	1077.11
690.74	1072.67
691.08	1074.31
691.41	1063.07
691.75	1061.67
692.09	1069.86
692.43	1085.07
692.76	1085.31
693.10	1104.50
693.44	1107.07
693.78	1105.44
694.11	1096.54
694.45	1089.52
694.79	1088.82
695.13	1090.46
695.46	1083.20
695.80	1081.80
696.14	1093.26
696.48	1095.60
696.81	1086.01
697.15	1078.28
697.49	1075.48
697.82	1065.18
698.16	1063.07
698.50	1071.03
698.83	1087.65
699.17	1083.43
699.51	1091.16
699.84	1083.67
700.18	1087.88
700.52	1077.35
700.85	1076.88
701.19	1077.58
701.53	1082.03
701.86	1089.52
702.20	1093.97
702.54	1098.88
702.87	1090.92
703.21	1093.26
703.55	1086.94
703.88	1089.05
704.22	1085.77
704.55	1096.07
704.89	1094.43
705.23	1080.39
705.56	1078.28
705.90	1083.90
706.23	1083.20
706.57	1078.05
706.91	1084.14
707.24	1078.75
707.58	1071.73
707.91	1068.92
708.25	1077.58
708.58	1086.48
708.92	1087.88
709.26	1087.65
709.59	1079.69
709.93	1078.05
710.26	1077.58
710.60	1084.60
710.93	1081.33
711.27	1090.92
711.60	1080.16
711.94	1079.92
712.27	1080.39
712.61	1087.41
712.94	1081.09
713.28	1090.69
713.61	1086.01
713.95	1082.03
714.28	1082.03
714.62	1080.86
714.95	1079.46
715.29	1083.43
715.62	1077.11
715.96	1071.73
716.29	1073.60
716.63	1067.99
716.96	1070.33
717.29	1080.86
717.63	1082.03
717.96	1078.75
718.30	1081.56
718.63	1072.67
718.97	1065.65
719.30	1072.90
719.63	1079.69
719.97	1086.71
720.30	1083.43
720.64	1086.01
720.97	1086.01
721.30	1089.52
721.64	1088.58
721.97	1089.05
722.31	1085.77
722.64	1078.05
722.97	1080.63
723.31	1072.67
723.64	1071.73
723.97	1073.60
724.31	1081.33
724.64	1069.62
724.98	1070.09
725.31	1075.24
725.64	1071.97
725.98	1065.18
726.31	1066.11
726.64	1073.60
726.97	1088.35
727.31	1088.82
727.64	1087.65
727.97	1086.94
728.31	1078.28
728.64	1065.18
728.97	1071.73
729.31	1081.33
729.64	1080.16
729.97	1082.50
730.30	1073.84
730.64	1067.75
730.97	1062.14
731.30	1063.31
731.63	1072.43
731.97	1068.92
732.30	1076.18
732.63	1080.63
732.96	1086.48
733.30	1086.48
733.63	1102.86
733.96	1100.05
734.29	1095.37
734.63	1093.73
734.96	1093.03
735.29	1094.67
735.62	1088.12
735.95	1083.67
736.29	1087.41
736.62	1079.46
736.95	1073.84
737.28	1084.37
737.61	1095.14
737.94	1090.22
738.28	1096.54
738.61	1092.80
738.94	1086.48
739.27	1085.31
739.60	1090.69
739.93	1083.90
740.27	1085.54
740.60	1094.90
740.93	1093.50
741.26	1094.90
741.59	1095.37
741.92	1096.31
742.25	1092.33
742.58	1095.14
742.91	1087.41
743.25	1082.73
743.58	1084.60
743.91	1085.07
744.24	1088.12
744.57	1094.67
744.90	1100.75
745.23	1089.75
745.56	1085.77
745.89	1080.16
746.22	1081.80
746.55	1073.37
746.88	1085.07
747.21	1082.73
747.54	1079.92
747.87	1080.39
748.20	1086.94
748.53	1083.67
748.87	1084.37
749.20	1087.65
749.53	1086.24
749.86	1086.71
750.19	1091.63
750.52	1089.75
750.85	1085.77
751.18	1074.77
751.51	1083.20
751.84	1078.99
752.16	1071.26
752.49	1071.97
752.82	1075.94
753.15	1075.24
753.48	1067.75
753.81	1092.33
754.14	1093.97
754.47	1101.46
754.80	1103.09
755.13	1102.16
755.46	1083.20
755.79	1076.41
756.12	1077.11
756.45	1069.62
756.78	1084.60
757.11	1086.48
757.43	1086.24
757.76	1080.63
758.09	1080.63
758.42	1073.37
758.75	1073.60
759.08	1082.03
759.41	1077.58
759.74	1075.01
760.07	1076.65
760.39	1084.14
760.72	1083.67
761.05	1084.84
761.38	1089.99
761.71	1088.35
762.04	1085.77
762.36	1074.77
762.69	1082.03
763.02	1086.71
763.35	1091.16
763.68	1086.48
764.01	1098.88
764.33	1096.07
764.66	1089.52
764.99	1084.60
765.32	1089.05
765.65	1092.80
765.97	1089.29
766.30	1084.14
766.63	1088.82
766.96	1088.35
767.28	1086.48
767.61	1102.39
767.94	1110.12
768.27	1101.92
768.59	1096.31
768.92	1093.26
769.25	1073.60
769.58	1074.07
769.90	1070.80
770.23	1072.43
770.56	1072.43
770.89	1080.16
771.21	1073.60
771.54	1078.99
771.87	1089.99
772.19	1088.12
772.52	1087.18
772.85	1089.75
773.17	1091.63
773.50	1083.90
773.83	1083.20
774.15	1078.05
774.48	1086.24
774.81	1082.97
775.13	1071.73
775.46	1074.54
775.79	1083.43
776.11	1072.67
776.44	1073.84
776.77	1084.14
777.09	1077.82
777.42	1069.16
777.74	1076.65
778.07	1082.97
778.40	1094.43
778.72	1094.67
779.05	1103.80
779.37	1098.18
779.70	1102.39
780.03	1086.71
780.35	1096.78
780.68	1086.94
781.00	1089.05
781.33	1087.18
781.65	1092.80
781.98	1091.39
782.31	1094.67
782.63	1097.71
782.96	1095.60
783.28	1100.99
783.61	1093.97
783.93	1098.88
784.26	1094.67
784.58	1100.29
784.91	1090.22
785.23	1091.16
785.56	1079.69
785.88	1087.18
786.21	1084.37
786.53	1089.75
786.86	1097.95
787.18	1099.82
787.51	1092.56
787.83	1083.20
788.16	1080.86
788.48	1070.56
788.81	1072.20
789.13	1061.43
789.46	1063.77
789.78	1066.58
790.10	1056.52
790.43	1056.05
790.75	1065.65
791.08	1070.56
791.40	1054.88
791.73	1063.77
792.05	1067.99
792.37	1064.01
792.70	1057.45
793.02	1073.37
793.35	1063.77
793.67	1061.90
793.99	1059.56
794.32	1057.92
794.64	1048.09
794.96	1069.39
795.29	1070.33
795.61	1078.75
795.93	1083.20
796.26	1099.35
796.58	1094.20
796.91	1085.54
797.23	1092.09
797.55	1090.22
797.87	1079.46
798.20	1077.82
798.52	1078.52
798.84	1067.05
799.17	1068.22
799.49	1066.82
799.81	1068.69
800.14	1075.48
800.46	1077.11
800.78	1071.97
801.10	1072.43
801.43	1066.11
801.75	1060.96
802.07	1065.65
802.40	1068.92
802.72	1066.58
803.04	1067.05
803.36	1078.52
803.69	1076.18
804.01	1084.60
804.33	1092.56
804.65	1097.48
804.97	1089.52
805.30	1092.33
805.62	1079.92
805.94	1066.82
806.26	1068.92
806.58	1075.24
806.91	1065.18
807.23	1071.50
807.55	1068.92
807.87	1062.84
808.19	1054.88
808.52	1062.37
808.84	1067.28
809.16	1091.86
809.48	1088.12
809.80	1095.37
810.12	1094.67
810.44	1092.09
810.77	1086.24
811.09	1085.77
811.41	1078.99
811.73	1082.50
812.05	1081.56
812.37	1072.67
812.69	1080.63
813.01	1085.31
813.33	1088.58
813.66	1080.39
813.98	1086.94
814.30	1091.16
814.62	1089.99
814.94	1084.84
815.26	1092.80
815.58	1099.12
815.90	1094.90
816.22	1095.37
816.54	1098.18
816.86	1102.63
817.18	1090.46
817.50	1092.09
817.82	1090.22
818.14	1086.01
818.46	1074.07
818.78	1067.99
819.10	1065.65
819.42	1064.24
819.74	1071.26
820.06	1073.14
820.38	1079.46
820.70	1080.63
821.02	1081.09
821.34	1069.62
821.66	1076.18
821.98	1076.41
822.30	1068.22
822.62	1071.03
822.94	1065.41
823.26	1060.96
823.58	1075.94
823.90	1087.65
824.22	1085.31
824.54	1094.43
824.86	1098.18
825.18	1088.35
825.50	1078.28
825.81	1080.86
826.13	1079.22
826.45	1072.90
826.77	1077.58
827.09	1095.37
827.41	1101.22
827.73	1103.80
828.05	1114.56
828.36	1110.12
828.68	1096.54
829.00	1086.94
829.32	1086.01
829.64	1078.52
829.96	1085.31
830.28	1087.18
830.59	1096.54
830.91	1100.75
831.23	1104.26
831.55	1093.26
831.87	1094.90
832.19	1094.90
832.50	1096.07
832.82	1096.78
833.14	1090.46
833.46	1084.37
833.78	1074.77
834.09	1068.22
834.41	1079.22
834.73	1078.75
835.05	1078.05
835.36	1078.28
835.68	1080.39
836.00	1072.20
836.32	1075.48
836.63	1082.73
836.95	1083.20
837.27	1092.33
837.59	1084.60
837.90	1087.65
838.22	1075.48
838.54	1077.35
838.85	1071.50
839.17	1067.28
839.49	1066.58
839.80	1070.56
840.12	1064.24
840.44	1061.43
840.76	1061.43
841.07	1063.31
841.39	1064.01
841.71	1066.11
842.02	1061.90
842.34	1070.80
842.65	1071.73
842.97	1081.56
843.29	1085.77
843.60	1091.16
843.92	1079.92
844.24	1080.39
844.55	1070.33
844.87	1063.31
845.18	1068.22
845.50	1080.16
845.82	1078.52
846.13	1077.58
846.45	1084.37
846.76	1071.97
847.08	1067.28
847.40	1068.45
847.71	1074.54
848.03	1077.11
848.34	1080.86
848.66	1083.20
848.97	1078.99
849.29	1080.39
849.60	1073.37
849.92	1075.94
850.24	1078.52
850.55	1079.69
850.87	1074.77
851.18	1068.22
851.50	1061.90
851.81	1057.22
852.13	1051.60
852.44	1064.94
852.76	1079.22
853.07	1086.48
853.39	1090.92
853.70	1092.80
854.01	1081.80
854.33	1086.01
854.64	1075.71
854.96	1069.62
855.27	1077.11
855.59	1073.84
855.90	1071.03
856.22	1081.56
856.53	1084.84
856.84	1083.90
857.16	1094.67
857.47	1101.92
857.79	1089.99
858.10	1086.01
858.41	1085.31
858.73	1079.92
859.04	1064.48
859.36	1075.01
859.67	1086.24
859.98	1090.22
860.30	1089.52
860.61	1093.26
860.92	1095.37
861.24	1087.18
861.55	1093.26
861.87	1089.29
862.18	1089.29
862.49	1088.35
862.81	1085.54
863.12	1076.88
863.43	1079.92
863.74	1078.52
864.06	1079.69
864.37	1082.03
864.68	1082.97
865.00	1093.03
865.31	1101.92
865.62	1095.84
865.94	1092.56
866.25	1089.29
866.56	1084.37
866.87	1075.94
867.19	1069.16
867.50	1067.75
867.81	1074.31
868.12	1066.82
868.44	1070.33
868.75	1085.54
869.06	1084.60
869.37	1082.03
869.68	1096.07
870.00	1091.63
870.31	1093.26
870.62	1097.48
870.93	1092.09
871.24	1088.35
871.56	1082.03
871.87	1072.67
872.18	1076.18
872.49	1073.84
872.80	1055.82
873.12	1063.77
873.43	1068.92
873.74	1063.31
874.05	1079.22
874.36	1094.20
874.67	1095.60
874.98	1090.22
875.29	1097.01
875.61	1102.39
875.92	1092.80
876.23	1092.56
876.54	1086.71
876.85	1072.20
877.16	1052.30
877.47	1053.01
877.78	1048.79
878.09	1057.69
878.40	1068.92
878.72	1075.48
879.03	1072.20
879.34	1078.99
879.65	1077.35
879.96	1081.09
880.27	1088.58
880.58	1107.31
880.89	1105.67
881.20	1101.92
881.51	1103.80
881.82	1088.35
882.13	1084.37
882.44	1085.07
882.75	1080.63
883.06	1074.07
883.37	1070.56
883.68	1064.48
883.99	1063.07
884.30	1077.11
884.61	1078.75
884.92	1078.99
885.23	1078.99
885.54	1086.24
885.85	1075.01
886.16	1075.48
886.47	1070.33
886.78	1068.22
887.08	1057.92
887.39	1063.54
887.70	1062.60
888.01	1073.37
888.32	1071.97
888.63	1081.56
888.94	1082.73
889.25	1093.73
889.56	1100.99
889.87	1097.71
890.17	1089.52
890.48	1072.43
890.79	1060.96
891.10	1061.67
891.41	1064.24
891.72	1075.48
892.03	1093.03
892.34	1102.16
892.64	1102.63
892.95	1101.46
893.26	1098.65
893.57	1104.26
893.88	1087.65
894.18	1077.11
894.49	1074.31
894.80	1072.90
895.11	1073.60
895.42	1080.86
895.72	1093.73
896.03	1098.18
896.34	1095.14
896.65	1085.54
896.96	1092.80
897.26	1090.46
897.57	1096.07
897.88	1095.14
898.19	1090.69
898.49	1087.41
898.80	1083.20
899.11	1074.54
899.41	1071.03
899.72	1074.54
900.03	1066.58
900.34	1070.56
900.64	1073.60
900.95	1077.35
901.26	1073.60
901.56	1081.09
901.87	1066.58
902.18	1070.56
902.48	1068.45
902.79	1072.67
903.10	1066.35
903.40	1075.94
903.71	1076.88
904.02	1075.24
904.32	1070.33
904.63	1068.45
904.94	1072.67
905.24	1067.75
905.55	1072.20
905.85	1077.58
906.16	1088.12
906.47	1082.26
906.77	1085.77
907.08	1082.73
907.38	1088.58
907.69	1085.31
908.00	1079.69
908.30	1076.41
908.61	1087.88
908.91	1076.65
909.22	1068.45
909.52	1078.05
909.83	1078.05
910.14	1073.37
910.44	1072.43
910.75	1080.16
911.05	1074.54
911.36	1072.20
911.66	1067.75
911.97	1077.82
912.27	1082.97
912.58	1078.99
912.88	1076.41
913.19	1078.05
913.49	1075.01
913.80	1062.14
914.10	1067.28
914.41	1078.52
914.71	1081.09
915.01	1082.26
915.32	1097.01
915.62	1103.56
915.93	1102.63
916.23	1092.56
916.54	1094.43
916.84	1087.18
917.15	1076.88
917.45	1074.07
917.75	1071.50
918.06	1071.97
918.36	1067.52
918.67	1062.14
918.97	1053.24
919.27	1059.56
919.58	1064.48
919.88	1068.69
920.18	1083.67
920.49	1092.09
920.79	1090.69
921.10	1087.41
921.40	1089.05
921.70	1080.86
922.01	1083.67
922.31	1088.82
922.61	1072.90
922.92	1071.50
923.22	1073.84
923.52	1057.69
923.82	1057.92
924.13	1068.92
924.43	1059.33
924.73	1056.99
925.04	1061.43
925.34	1049.50
925.64	1050.20
925.94	1055.58
926.25	1059.56
926.55	1065.41
926.85	1078.05
927.15	1083.20
927.46	1087.88
927.76	1085.07
928.06	1089.99
928.36	1087.18
928.67	1079.46
928.97	1076.41
929.27	1078.28
929.57	1079.69
929.87	1076.65
930.18	1071.26
930.48	1069.62
930.78	1072.90
931.08	1061.67
931.38	1063.77
931.69	1070.80
931.99	1082.03
932.29	1078.05
932.59	1089.52
932.89	1101.22
933.19	1106.37
933.49	1100.75
933.80	1099.12
934.10	1092.33
934.40	1076.65
934.70	1075.94
935.00	1076.41
935.30	1083.43
935.60	1093.97
935.90	1099.58
936.20	1093.97
936.50	1092.09
936.81	1091.39
937.11	1080.86
937.41	1076.41
937.71	1068.92
938.01	1064.71
938.31	1057.92
938.61	1060.96
938.91	1055.82
939.21	1067.75
939.51	1067.05
939.81	1068.69
940.11	1063.07
940.41	1067.28
940.71	1065.65
941.01	1065.65
941.31	1061.20
941.61	1074.54
941.91	1075.71
942.21	1076.65
942.51	1079.22
942.81	1083.67
943.11	1068.92
943.41	1076.18
943.71	1074.31
944.01	1073.37
944.31	1073.37
944.61	1081.56
944.90	1067.99
945.20	1061.67
945.50	1064.24
945.80	1071.50
946.10	1072.20
946.40	1086.24
946.70	1088.58
947.00	1084.84
947.30	1077.82
947.60	1073.37
947.89	1062.60
948.19	1070.09
948.49	1075.01
948.79	1082.97
949.09	1087.18
949.39	1092.09
949.69	1087.18
949.98	1080.63
950.28	1079.69
950.58	1076.88
950.88	1075.48
951.18	1072.43
951.48	1082.26
951.77	1076.41
952.07	1069.86
952.37	1069.62
952.67	1076.18
952.97	1077.11
953.26	1073.60
953.56	1078.52
953.86	1078.52
954.16	1074.31
954.45	1066.58
954.75	1071.97
955.05	1073.37
955.35	1065.88
955.64	1068.69
955.94	1065.41
956.24	1059.09
956.54	1053.71
956.83	1060.96
957.13	1065.88
957.43	1068.92
957.72	1079.22
958.02	1088.35
958.32	1085.07
958.61	1078.05
958.91	1080.63
959.21	1070.33
959.50	1067.28
959.80	1068.45
960.10	1074.77
960.39	1070.56
960.69	1076.65
960.99	1083.20
961.28	1082.73
961.58	1078.99
961.87	1090.92
962.17	1084.84
962.47	1079.22
962.76	1093.50
963.06	1095.14
963.36	1086.48
963.65	1084.37
963.95	1084.14
964.24	1082.03
964.54	1074.07
964.83	1081.09
965.13	1095.37
965.42	1095.60
965.72	1094.20
966.02	1102.39
966.31	1102.16
966.61	1099.12
966.90	1101.92
967.20	1101.92
967.49	1095.37
967.79	1089.75
968.08	1081.33
968.38	1075.94
968.67	1056.75
968.97	1059.56
969.26	1055.58
969.56	1058.86
969.85	1061.20
970.15	1074.07
970.44	1076.88
970.74	1082.03
971.03	1086.24
971.32	1084.37
971.62	1078.05
971.91	1086.71
972.21	1096.07
972.50	1093.03
972.80	1095.60
973.09	1105.67
973.38	1085.31
973.68	1076.41
973.97	1072.20
974.27	1077.35
974.56	1075.24
974.85	1082.73
975.15	1086.01
975.44	1087.65
975.73	1079.69
976.03	1077.35
976.32	1080.86
976.61	1075.48
976.91	1078.75
977.20	1084.60
977.49	1078.05
977.79	1081.09
978.08	1085.07
978.37	1090.22
978.67	1084.37
978.96	1092.09
979.25	1090.46
979.55	1088.35
979.84	1082.97
980.13	1084.60
980.42	1083.67
980.72	1080.16
981.01	1077.11
981.30	1079.46
981.59	1073.37
981.89	1073.37
982.18	1082.03
982.47	1080.39
982.76	1083.90
983.06	1094.67
983.35	1094.67
983.64	1090.92
983.93	1095.84
984.22	1088.58
984.52	1079.22
984.81	1075.94
985.10	1075.94
985.39	1078.05
985.68	1069.86
985.97	1079.22
986.27	1080.39
986.56	1082.97
986.85	1078.28
987.14	1088.58
987.43	1087.88
987.72	1081.56
988.01	1077.11
988.31	1074.54
988.60	1072.43
988.89	1062.84
989.18	1064.94
989.47	1070.56
989.76	1069.86
990.05	1073.84
990.34	1075.94
990.63	1084.60
990.92	1072.67
991.21	1075.71
991.51	1070.33
991.80	1066.58
992.09	1056.28
992.38	1056.99
992.67	1059.33
992.96	1062.84
993.25	1075.71
993.54	1084.60
993.83	1085.31
994.12	1085.07
994.41	1086.48
994.70	1097.01
994.99	1102.86
995.28	1109.65
995.57	1103.33
995.86	1105.67
996.15	1082.03
996.44	1080.63
996.73	1071.73
997.02	1078.52
997.31	1071.73
997.59	1088.35
997.88	1082.50
998.17	1082.50
998.46	1069.39
998.75	1071.50
999.04	1058.39
999.33	1059.79
999.62	1071.97
999.91	1088.58
1000.20	1088.12
1000.49	1095.37
1000.77	1095.84
1001.06	1087.65
1001.35	1095.37
1001.64	1096.54
1001.93	1091.39
1002.22	1095.14
1002.51	1101.46
1002.79	1082.26
1003.08	1089.99
1003.37	1094.20
1003.66	1091.86
1003.95	1091.39
1004.23	1104.26
1004.52	1095.84
1004.81	1085.31
1005.10	1082.73
1005.39	1081.33
1005.67	1074.31
1005.96	1075.01
1006.25	1086.48
1006.54	1087.18
1006.83	1084.37
1007.11	1090.46
1007.40	1079.22
1007.69	1073.14
1007.97	1080.16
1008.26	1074.77
1008.55	1078.99
1008.84	1084.60
1009.12	1086.01
1009.41	1084.84
1009.70	1095.37
1009.98	1099.12
1010.27	1113.63
1010.56	1119.01
1010.85	1109.41
1011.13	1107.31
1011.42	1091.16
1011.71	1092.80
1011.99	1094.43
1012.28	1102.16
1012.56	1102.16
1012.85	1095.37
1013.14	1083.67
1013.42	1090.92
1013.71	1086.01
1014.00	1089.99
1014.28	1093.97
1014.57	1084.60
1014.85	1081.09
1015.14	1078.75
1015.43	1071.26
1015.71	1076.88
1016.00	1088.82
1016.28	1079.69
1016.57	1079.69
1016.85	1081.80
1017.14	1082.26
1017.43	1087.18
1017.71	1089.75
1018.00	1092.56
1018.28	1098.41
1018.57	1096.31
1018.85	1086.94
1019.14	1087.88
1019.42	1082.73
1019.71	1072.67
1019.99	1072.90
1020.28	1074.54
1020.56	1073.84
1020.85	1085.31
1021.13	1088.82
1021.42	1085.77
1021.70	1076.41
1021.99	1075.94
1022.27	1068.22
1022.55	1091.86
1022.84	1073.14
>>>>>End Processed Spectral Data<<<<<
