SpectraSuite Data File
++++++++++++++++++++++++++++++++++++
Date: Mon Aug 26 10:24:47 PDT 2019
User: corrico
Dark Spectrum Present: No
Reference Spectrum Present: No
Number of Sampled Component Spectra: 1
Spectrometers: USB2+H06089
Integration Time (usec): 10000 (USB2+H06089)
Spectra Averaged: 2 (USB2+H06089)
Boxcar Smoothing: 2 (USB2+H06089)
Correct for Electrical Dark: No (USB2+H06089)
Strobe/Lamp Enabled: No (USB2+H06089)
Correct for Detector Non-linearity: No (USB2+H06089)
Correct for Stray Light: No (USB2+H06089)
Number of Pixels in Processed Spectrum: 2048
>>>>>Begin Processed Spectral Data<<<<<
339.70	1076.65
340.07	1076.65
340.45	1007.37
340.82	978.58
341.19	950.26
341.57	920.77
341.94	917.49
342.31	917.72
342.69	916.55
343.06	898.53
343.43	887.77
343.81	895.49
344.18	887.77
344.55	882.85
344.93	905.09
345.30	915.38
345.67	915.62
346.04	932.94
346.42	950.73
346.79	955.17
347.16	954.00
347.54	955.41
347.91	975.30
348.28	976.24
348.65	983.02
349.03	997.77
349.40	1013.69
349.77	1010.64
350.14	1018.13
350.52	1021.18
350.89	1034.75
351.26	1043.88
351.63	1058.86
352.01	1075.48
352.38	1088.12
352.75	1099.35
353.12	1098.41
353.50	1097.95
353.87	1092.09
354.24	1082.03
354.61	1082.73
354.98	1084.60
355.36	1083.43
355.73	1082.50
356.10	1095.37
356.47	1084.37
356.84	1093.03
357.22	1092.33
357.59	1098.41
357.96	1097.24
358.33	1106.37
358.70	1090.69
359.08	1090.46
359.45	1081.80
359.82	1082.26
360.19	1075.24
360.56	1082.26
360.94	1074.77
361.31	1084.14
361.68	1082.50
362.05	1088.58
362.42	1085.77
362.79	1094.43
363.16	1090.92
363.54	1090.69
363.91	1089.52
364.28	1101.22
364.65	1103.33
365.02	1101.69
365.39	1098.65
365.76	1097.24
366.14	1090.69
366.51	1088.35
366.88	1088.58
367.25	1091.16
367.62	1087.88
367.99	1077.11
368.36	1081.56
368.73	1082.26
369.10	1078.28
369.48	1073.84
369.85	1075.94
370.22	1082.26
370.59	1074.07
370.96	1085.31
371.33	1091.39
371.70	1098.65
372.07	1084.37
372.44	1097.95
372.81	1085.54
373.18	1091.16
373.55	1092.56
373.93	1094.43
374.30	1086.48
374.67	1095.60
375.04	1093.03
375.41	1087.65
375.78	1090.92
376.15	1093.50
376.52	1088.12
376.89	1083.20
377.26	1088.12
377.63	1088.58
378.00	1093.26
378.37	1090.69
378.74	1089.29
379.11	1085.54
379.48	1088.12
379.85	1082.50
380.22	1083.20
380.59	1093.03
380.96	1095.84
381.33	1092.09
381.70	1092.56
382.07	1105.90
382.44	1099.82
382.81	1106.84
383.18	1106.84
383.55	1102.63
383.92	1082.97
384.29	1084.37
384.66	1074.54
385.03	1073.84
385.40	1073.60
385.77	1080.86
386.14	1086.94
386.51	1089.52
386.88	1099.12
387.25	1104.97
387.62	1111.99
387.99	1098.88
388.36	1100.52
388.73	1092.09
389.10	1095.14
389.46	1094.67
389.83	1106.61
390.20	1118.54
390.57	1123.69
390.94	1125.33
391.31	1128.14
391.68	1126.73
392.05	1111.75
392.42	1104.03
392.79	1100.52
393.16	1091.63
393.53	1093.73
393.89	1097.48
394.26	1101.22
394.63	1107.78
395.00	1123.93
395.37	1126.03
395.74	1132.82
396.11	1132.82
396.48	1132.82
396.84	1113.63
397.21	1119.71
397.58	1114.80
397.95	1117.14
398.32	1122.05
398.69	1148.50
399.06	1137.27
399.42	1143.12
399.79	1142.88
400.16	1147.33
400.53	1139.14
400.90	1144.29
401.27	1141.25
401.64	1150.61
402.00	1153.42
402.37	1155.05
402.74	1160.20
403.11	1178.46
403.48	1188.29
403.84	1195.31
404.21	1206.55
404.58	1221.06
404.95	1224.57
405.32	1242.36
405.68	1242.12
406.05	1256.63
406.42	1267.63
406.79	1277.93
407.16	1284.02
407.52	1300.87
407.89	1319.59
408.26	1338.08
408.63	1365.47
408.99	1386.30
409.36	1415.56
409.73	1436.15
410.10	1464.47
410.47	1486.24
410.83	1519.94
411.20	1551.54
411.57	1584.07
411.94	1619.42
412.30	1666.93
412.67	1713.51
413.04	1759.15
413.40	1820.70
413.77	1881.32
414.14	1947.56
414.51	2018.01
414.87	2092.67
415.24	2164.29
415.61	2252.53
415.97	2325.32
416.34	2415.43
416.71	2530.12
417.08	2633.10
417.44	2720.40
417.81	2841.88
418.18	2964.52
418.54	3080.61
418.91	3233.22
419.28	3397.52
419.64	3554.81
420.01	3735.03
420.38	3881.08
420.74	4050.06
421.11	4248.31
421.48	4458.25
421.84	4646.67
422.21	4909.04
422.58	5162.99
422.94	5428.64
423.31	5697.33
423.68	5990.37
424.04	6261.87
424.41	6526.35
424.77	6810.96
425.14	7142.85
425.51	7461.63
425.87	7848.75
426.24	8175.49
426.61	8608.26
426.97	9091.34
427.34	9577.00
427.70	10099.41
428.07	10695.08
428.44	11212.34
428.80	11704.08
429.17	12270.73
429.53	12788.45
429.90	13407.06
430.27	13960.13
430.63	14528.41
431.00	15170.88
431.36	15916.35
431.73	16512.95
432.09	17215.58
432.46	17876.78
432.83	18580.11
433.19	19172.73
433.56	19937.15
433.92	20657.80
434.29	21369.56
434.65	22054.17
435.02	22635.79
435.38	23219.52
435.75	23658.84
436.11	24269.01
436.48	24690.08
436.84	25256.49
437.21	25758.53
437.57	26298.73
437.94	26715.58
438.30	27040.91
438.67	27254.37
439.03	27370.46
439.40	27518.38
439.76	27452.14
440.13	27418.21
440.49	27430.84
440.86	27284.09
441.22	26992.23
441.59	26673.68
441.95	26419.50
442.32	25885.86
442.68	25376.32
443.05	24856.72
443.41	24334.32
443.78	23607.58
444.14	23047.49
444.51	22437.78
444.87	21985.59
445.24	21440.48
445.60	20944.75
445.96	20330.60
446.33	19852.42
446.69	19195.67
447.06	18647.75
447.42	18108.49
447.79	17558.93
448.15	17086.38
448.51	16653.15
448.88	16272.57
449.24	15827.64
449.61	15581.41
449.97	15197.57
450.33	14801.55
450.70	14339.06
451.06	14007.40
451.43	13546.08
451.79	13168.79
452.15	12869.20
452.52	12587.64
452.88	12307.47
453.24	12086.29
453.61	11841.24
453.97	11532.29
454.34	11198.06
454.70	10869.92
455.06	10527.73
455.43	10155.58
455.79	9767.06
456.15	9467.70
456.52	9162.96
456.88	8917.91
457.24	8658.58
457.61	8503.40
457.97	8298.14
458.33	8064.55
458.70	7799.37
459.06	7552.44
459.42	7293.11
459.79	7028.39
460.15	6820.32
460.51	6588.37
460.88	6384.51
461.24	6157.01
461.60	5986.39
461.96	5803.12
462.33	5658.71
462.69	5492.77
463.05	5341.80
463.42	5224.31
463.78	5101.90
464.14	4947.89
464.50	4825.25
464.87	4732.33
465.23	4581.13
465.59	4484.70
465.95	4404.89
466.32	4313.84
466.68	4215.30
467.04	4138.77
467.40	4024.55
467.77	3930.23
468.13	3846.90
468.49	3767.33
468.85	3698.51
469.22	3631.81
469.58	3569.08
469.94	3515.02
470.30	3447.61
470.66	3391.90
471.03	3329.18
471.39	3281.90
471.75	3210.75
472.11	3154.81
472.47	3088.10
472.84	3051.82
473.20	2983.95
473.56	2948.14
473.92	2888.46
474.28	2863.65
474.65	2815.43
475.01	2775.64
475.37	2708.94
475.73	2679.21
476.09	2628.89
476.45	2582.31
476.81	2532.93
477.18	2515.84
477.54	2467.63
477.90	2411.69
478.26	2370.49
478.62	2345.68
478.98	2294.19
479.34	2264.00
479.71	2240.13
480.07	2209.93
480.43	2184.66
480.79	2168.04
481.15	2153.76
481.51	2142.06
481.87	2120.53
482.23	2092.20
482.59	2061.31
482.96	2029.48
483.32	2008.18
483.68	1977.99
484.04	1955.05
484.40	1936.33
484.76	1922.28
485.12	1886.94
485.48	1871.96
485.84	1860.26
486.20	1857.22
486.56	1838.02
486.92	1818.36
487.28	1807.13
487.64	1770.15
488.00	1746.27
488.37	1720.53
488.73	1702.04
489.09	1675.82
489.45	1664.59
489.81	1636.50
490.17	1618.48
490.53	1613.57
490.89	1608.18
491.25	1592.50
491.61	1572.61
491.97	1577.52
492.33	1563.24
492.69	1544.99
493.05	1545.46
493.41	1539.60
493.77	1511.05
494.13	1494.43
494.49	1492.56
494.85	1475.24
495.21	1462.60
495.57	1447.39
495.93	1426.32
496.29	1406.19
496.64	1401.75
497.00	1400.58
497.36	1396.60
497.72	1404.32
498.08	1394.73
498.44	1374.13
498.80	1361.96
499.16	1355.87
499.52	1345.81
499.88	1346.28
500.24	1349.08
500.60	1338.32
500.96	1331.76
501.32	1327.55
501.68	1311.87
502.03	1299.70
502.39	1294.55
502.75	1290.81
503.11	1286.12
503.47	1285.89
503.83	1283.78
504.19	1275.12
504.55	1261.08
504.91	1242.36
505.26	1239.31
505.62	1232.99
505.98	1230.42
506.34	1232.29
506.70	1246.57
507.06	1244.70
507.42	1251.02
507.78	1251.02
508.13	1247.51
508.49	1232.76
508.85	1236.97
509.21	1236.27
509.57	1229.02
509.93	1217.55
510.28	1224.57
510.64	1212.16
511.00	1202.80
511.36	1202.80
511.72	1214.04
512.07	1209.82
512.43	1202.33
512.79	1207.01
513.15	1202.33
513.51	1189.46
513.86	1182.91
514.22	1191.57
514.58	1177.29
514.94	1175.42
515.30	1175.65
515.65	1168.16
516.01	1153.18
516.37	1150.61
516.73	1159.50
517.08	1164.18
517.44	1169.57
517.80	1173.08
518.16	1173.54
518.51	1162.54
518.87	1151.54
519.23	1141.95
519.59	1142.42
519.94	1142.42
520.30	1140.54
520.66	1142.88
521.01	1138.44
521.37	1135.39
521.73	1137.03
522.09	1135.39
522.44	1137.50
522.80	1145.46
523.16	1148.97
523.51	1141.25
523.87	1135.39
524.23	1127.44
524.58	1127.90
524.94	1124.39
525.30	1128.61
525.65	1137.27
526.01	1146.63
526.37	1142.65
526.72	1134.46
527.08	1131.65
527.44	1131.41
527.79	1129.78
528.15	1131.18
528.51	1135.86
528.86	1124.63
529.22	1117.84
529.58	1117.37
529.93	1116.67
530.29	1115.73
530.65	1118.31
531.00	1114.09
531.36	1096.54
531.71	1097.71
532.07	1091.16
532.43	1095.14
532.78	1089.99
533.14	1098.65
533.49	1092.09
533.85	1099.35
534.21	1100.52
534.56	1109.65
534.92	1113.63
535.27	1113.86
535.63	1114.33
535.98	1113.16
536.34	1107.31
536.69	1101.92
537.05	1105.90
537.41	1102.39
537.76	1101.92
538.12	1106.61
538.47	1117.61
538.83	1104.03
539.18	1097.01
539.54	1099.35
539.89	1097.48
540.25	1085.54
540.60	1093.50
540.96	1109.88
541.31	1103.33
541.67	1113.86
542.02	1117.14
542.38	1122.29
542.73	1115.73
543.09	1120.65
543.44	1110.35
543.80	1118.07
544.15	1121.82
544.51	1119.95
544.86	1114.56
545.22	1116.67
545.57	1115.03
545.93	1111.52
546.28	1104.97
546.64	1111.99
546.99	1112.22
547.35	1107.07
547.70	1100.29
548.05	1103.33
548.41	1102.39
548.76	1104.73
549.12	1108.95
549.47	1108.48
549.83	1106.84
550.18	1107.78
550.53	1109.41
550.89	1104.73
551.24	1097.24
551.60	1105.90
551.95	1095.60
552.30	1086.24
552.66	1082.26
553.01	1091.86
553.37	1089.29
553.72	1095.84
554.07	1097.24
554.43	1103.09
554.78	1110.12
555.13	1109.65
555.49	1110.82
555.84	1119.01
556.19	1117.61
556.55	1113.39
556.90	1105.20
557.26	1102.39
557.61	1094.90
557.96	1089.29
558.32	1087.88
558.67	1091.39
559.02	1087.88
559.37	1092.80
559.73	1099.35
560.08	1097.71
560.43	1093.73
560.79	1107.07
561.14	1106.84
561.49	1101.69
561.85	1100.52
562.20	1107.07
562.55	1107.54
562.90	1101.22
563.26	1107.54
563.61	1110.58
563.96	1112.69
564.32	1103.80
564.67	1109.88
565.02	1098.88
565.37	1097.71
565.73	1095.60
566.08	1092.33
566.43	1093.03
566.78	1111.29
567.14	1110.82
567.49	1111.29
567.84	1111.52
568.19	1110.82
568.54	1108.48
568.90	1106.14
569.25	1106.14
569.60	1104.50
569.95	1102.86
570.31	1088.35
570.66	1096.07
571.01	1101.22
571.36	1100.99
571.71	1099.35
572.06	1101.92
572.42	1099.12
572.77	1089.75
573.12	1089.75
573.47	1086.71
573.82	1086.01
574.18	1082.03
574.53	1079.69
574.88	1073.14
575.23	1075.24
575.58	1086.48
575.93	1090.22
576.28	1103.09
576.64	1113.86
576.99	1109.18
577.34	1098.88
577.69	1100.75
578.04	1100.75
578.39	1096.78
578.74	1096.07
579.09	1093.50
579.44	1094.43
579.80	1081.33
580.15	1090.69
580.50	1096.31
580.85	1113.39
581.20	1111.05
581.55	1117.61
581.90	1116.90
582.25	1122.05
582.60	1113.86
582.95	1108.95
583.30	1115.03
583.65	1110.58
584.00	1100.05
584.35	1089.29
584.71	1097.01
585.06	1099.82
585.41	1111.52
585.76	1121.12
586.11	1133.52
586.46	1127.20
586.81	1117.37
587.16	1094.43
587.51	1100.05
587.86	1087.65
588.21	1084.60
588.56	1082.26
588.91	1101.92
589.26	1093.97
589.61	1104.97
589.96	1108.01
590.31	1110.82
590.66	1102.86
591.01	1107.31
591.36	1100.29
591.71	1093.97
592.06	1096.54
592.41	1098.41
592.76	1093.97
593.10	1100.29
593.45	1098.18
593.80	1100.29
594.15	1103.56
594.50	1097.01
594.85	1095.14
595.20	1103.80
595.55	1096.78
595.90	1088.82
596.25	1087.41
596.60	1091.63
596.95	1098.65
597.30	1102.86
597.64	1157.39
597.99	1157.63
598.34	1138.44
598.69	1139.61
599.04	1134.93
599.39	1075.94
599.74	1078.52
600.09	1093.73
600.44	1087.41
600.78	1086.71
601.13	1089.29
601.48	1092.09
601.83	1094.43
602.18	1094.20
602.53	1093.26
602.88	1088.82
603.22	1092.33
603.57	1090.92
603.92	1092.33
604.27	1098.65
604.62	1106.37
604.97	1107.78
605.31	1107.07
605.66	1111.52
606.01	1103.09
606.36	1109.65
606.71	1097.24
607.05	1101.69
607.40	1099.35
607.75	1098.18
608.10	1091.86
608.44	1102.39
608.79	1095.37
609.14	1099.12
609.49	1111.52
609.84	1109.65
610.18	1104.73
610.53	1114.10
610.88	1103.33
611.23	1099.35
611.57	1101.92
611.92	1104.73
612.27	1098.65
612.62	1114.33
612.96	1102.86
613.31	1096.07
613.66	1089.52
614.00	1094.43
614.35	1084.14
614.70	1096.07
615.05	1101.22
615.39	1106.84
615.74	1102.39
616.09	1105.20
616.43	1097.71
616.78	1101.46
617.13	1102.16
617.47	1096.31
617.82	1083.90
618.17	1089.05
618.51	1080.86
618.86	1083.20
619.21	1086.48
619.55	1092.56
619.90	1088.12
620.25	1090.92
620.59	1092.09
620.94	1095.37
621.29	1094.20
621.63	1095.37
621.98	1085.77
622.32	1080.63
622.67	1071.50
623.02	1080.63
623.36	1076.18
623.71	1085.07
624.05	1088.12
624.40	1096.07
624.75	1089.52
625.09	1100.29
625.44	1101.46
625.78	1106.84
626.13	1104.03
626.48	1095.60
626.82	1089.99
627.17	1092.33
627.51	1087.41
627.86	1090.69
628.20	1108.95
628.55	1103.33
628.89	1104.97
629.24	1109.18
629.58	1101.22
629.93	1094.67
630.28	1100.75
630.62	1091.63
630.97	1081.33
631.31	1089.05
631.66	1083.90
632.00	1082.03
632.35	1087.18
632.69	1089.99
633.04	1090.69
633.38	1096.07
633.73	1108.95
634.07	1110.35
634.42	1103.33
634.76	1090.46
635.11	1078.52
635.45	1065.65
635.79	1065.41
636.14	1063.31
636.48	1081.09
636.83	1084.84
637.17	1089.52
637.52	1093.73
637.86	1092.09
638.21	1089.05
638.55	1092.80
638.89	1089.99
639.24	1077.82
639.58	1081.33
639.93	1075.24
640.27	1074.77
640.61	1071.73
640.96	1079.92
641.30	1097.24
641.65	1102.63
641.99	1101.46
642.33	1103.09
642.68	1108.95
643.02	1109.18
643.37	1104.26
643.71	1101.69
644.05	1106.84
644.40	1100.75
644.74	1086.24
645.08	1083.20
645.43	1082.26
645.77	1072.43
646.11	1069.86
646.46	1071.03
646.80	1075.01
647.14	1081.80
647.49	1090.46
647.83	1091.86
648.17	1099.35
648.52	1087.41
648.86	1082.26
649.20	1086.24
649.55	1093.03
649.89	1089.75
650.23	1104.73
650.57	1104.50
650.92	1091.86
651.26	1094.67
651.60	1101.22
651.95	1098.18
652.29	1099.12
652.63	1109.41
652.97	1100.05
653.32	1096.31
653.66	1101.92
654.00	1099.82
654.34	1094.67
654.69	1103.80
655.03	1103.33
655.37	1097.24
655.71	1095.14
656.05	1097.24
656.40	1081.33
656.74	1085.31
657.08	1084.60
657.42	1087.65
657.76	1080.16
658.11	1080.16
658.45	1072.20
658.79	1076.88
659.13	1071.73
659.47	1078.28
659.82	1097.01
660.16	1096.78
660.50	1086.71
660.84	1094.67
661.18	1088.82
661.52	1071.97
661.87	1055.58
662.21	1054.88
662.55	1051.60
662.89	1059.79
663.23	1057.92
663.57	1067.05
663.91	1068.45
664.25	1073.37
664.60	1077.35
664.94	1086.24
665.28	1082.26
665.62	1084.14
665.96	1076.65
666.30	1065.41
666.64	1064.24
666.98	1081.56
667.32	1080.39
667.66	1088.82
668.01	1101.22
668.35	1104.03
668.69	1098.88
669.03	1102.16
669.37	1093.50
669.71	1085.07
670.05	1082.03
670.39	1088.82
670.73	1087.65
671.07	1095.84
671.41	1087.41
671.75	1081.80
672.09	1074.54
672.43	1083.20
672.77	1088.12
673.11	1096.31
673.45	1095.14
673.79	1093.03
674.13	1080.86
674.47	1065.65
674.81	1068.92
675.15	1072.67
675.49	1075.71
675.83	1078.75
676.17	1078.05
676.51	1075.94
676.85	1077.11
677.19	1073.60
677.53	1078.99
677.87	1077.11
678.21	1076.88
678.55	1083.43
678.89	1079.22
679.23	1072.67
679.57	1087.88
679.90	1088.35
680.24	1078.28
680.58	1079.92
680.92	1078.75
681.26	1072.43
681.60	1075.94
681.94	1082.73
682.28	1081.56
682.62	1082.50
682.96	1083.67
683.29	1078.99
683.63	1075.24
683.97	1078.52
684.31	1081.56
684.65	1086.48
684.99	1082.26
685.33	1083.43
685.67	1090.22
686.00	1084.37
686.34	1084.37
686.68	1090.46
687.02	1090.69
687.36	1089.05
687.70	1096.54
688.03	1088.58
688.37	1073.84
688.71	1077.58
689.05	1071.03
689.39	1069.62
689.72	1074.77
690.06	1085.77
690.40	1081.09
690.74	1089.52
691.08	1093.73
691.41	1088.82
691.75	1095.37
692.09	1097.71
692.43	1094.90
692.76	1097.95
693.10	1096.54
693.44	1093.50
693.78	1082.26
694.11	1082.03
694.45	1073.84
694.79	1081.56
695.13	1073.14
695.46	1081.33
695.80	1083.90
696.14	1089.52
696.48	1091.39
696.81	1101.22
697.15	1094.90
697.49	1094.43
697.82	1087.65
698.16	1092.33
698.50	1082.50
698.83	1084.14
699.17	1082.73
699.51	1087.41
699.84	1075.01
700.18	1079.69
700.52	1081.56
700.85	1083.90
701.19	1084.84
701.53	1089.29
701.86	1093.03
702.20	1098.18
702.54	1089.29
702.87	1082.73
703.21	1087.65
703.55	1092.33
703.88	1086.01
704.22	1091.39
704.55	1087.88
704.89	1076.88
705.23	1070.56
705.56	1079.22
705.90	1074.77
706.23	1081.80
706.57	1085.77
706.91	1089.52
707.24	1075.24
707.58	1082.50
707.91	1083.90
708.25	1070.33
708.58	1071.03
708.92	1085.77
709.26	1083.90
709.59	1084.37
709.93	1096.78
710.26	1084.84
710.60	1085.31
710.93	1077.35
711.27	1071.50
711.60	1078.05
711.94	1084.37
712.27	1071.26
712.61	1078.52
712.94	1078.99
713.28	1071.03
713.61	1078.99
713.95	1080.39
714.28	1064.94
714.62	1066.35
714.95	1082.97
715.29	1067.75
715.62	1078.99
715.96	1095.84
716.29	1087.41
716.63	1067.99
716.96	1082.97
717.29	1078.05
717.63	1068.22
717.96	1086.01
718.30	1089.05
718.63	1079.92
718.97	1075.24
719.30	1088.12
719.63	1075.01
719.97	1080.63
720.30	1085.77
720.64	1092.09
720.97	1080.86
721.30	1088.35
721.64	1078.75
721.97	1079.46
722.31	1083.43
722.64	1079.69
722.97	1082.97
723.31	1086.24
723.64	1078.52
723.97	1068.45
724.31	1083.43
724.64	1072.67
724.98	1073.14
725.31	1078.75
725.64	1073.84
725.98	1058.86
726.31	1062.84
726.64	1066.58
726.97	1059.09
727.31	1063.54
727.64	1074.07
727.97	1064.01
728.31	1064.71
728.64	1074.31
728.97	1073.37
729.31	1075.24
729.64	1093.03
729.97	1086.48
730.30	1085.31
730.64	1094.90
730.97	1091.16
731.30	1077.58
731.63	1083.90
731.97	1084.60
732.30	1082.03
732.63	1086.94
732.96	1088.82
733.30	1082.50
733.63	1081.09
733.96	1075.48
734.29	1075.71
734.63	1075.01
734.96	1084.60
735.29	1081.09
735.62	1085.31
735.95	1084.60
736.29	1087.88
736.62	1073.60
736.95	1078.28
737.28	1077.35
737.61	1083.90
737.94	1086.71
738.28	1098.65
738.61	1096.78
738.94	1101.92
739.27	1095.84
739.60	1095.37
739.93	1089.75
740.27	1087.65
740.60	1073.60
740.93	1073.37
741.26	1062.84
741.59	1059.33
741.92	1060.96
742.25	1067.28
742.58	1060.73
742.91	1065.41
743.25	1069.86
743.58	1066.58
743.91	1074.77
744.24	1076.41
744.57	1087.65
744.90	1089.29
745.23	1095.37
745.56	1086.94
745.89	1094.90
746.22	1091.86
746.55	1095.84
746.88	1091.16
747.21	1098.41
747.54	1101.22
747.87	1099.35
748.20	1096.78
748.53	1093.50
748.87	1091.16
749.20	1077.58
749.53	1081.56
749.86	1087.18
750.19	1087.18
750.52	1094.43
750.85	1104.73
751.18	1097.71
751.51	1096.78
751.84	1101.69
752.16	1090.46
752.49	1076.41
752.82	1071.73
753.15	1066.58
753.48	1061.43
753.81	1060.73
754.14	1072.67
754.47	1073.14
754.80	1081.56
755.13	1097.95
755.46	1091.39
755.79	1088.35
756.12	1106.61
756.45	1095.37
756.78	1085.77
757.11	1094.43
757.43	1092.33
757.76	1079.46
758.09	1085.77
758.42	1073.84
758.75	1077.35
759.08	1070.33
759.41	1069.86
759.74	1073.14
760.07	1083.90
760.39	1081.56
760.72	1081.56
761.05	1068.69
761.38	1054.41
761.71	1046.45
762.04	1046.69
762.36	1047.39
762.69	1065.41
763.02	1072.20
763.35	1075.01
763.68	1077.58
764.01	1085.07
764.33	1072.67
764.66	1068.92
764.99	1079.92
765.32	1076.88
765.65	1077.35
765.97	1087.18
766.30	1086.94
766.63	1072.67
766.96	1069.62
767.28	1064.24
767.61	1060.26
767.94	1057.92
768.27	1058.16
768.59	1063.07
768.92	1061.20
769.25	1059.33
769.58	1060.96
769.90	1062.84
770.23	1054.88
770.56	1060.73
770.89	1069.86
771.21	1074.31
771.54	1077.82
771.87	1074.77
772.19	1075.24
772.52	1063.31
772.85	1061.90
773.17	1065.88
773.50	1072.20
773.83	1067.28
774.15	1080.39
774.48	1081.33
774.81	1078.28
775.13	1080.39
775.46	1088.58
775.79	1081.09
776.11	1074.54
776.44	1074.54
776.77	1073.84
777.09	1070.09
777.42	1077.82
777.74	1084.60
778.07	1081.09
778.40	1084.37
778.72	1083.20
779.05	1080.16
779.37	1087.88
779.70	1091.86
780.03	1097.01
780.35	1100.75
780.68	1096.78
781.00	1084.14
781.33	1086.48
781.65	1078.05
781.98	1067.99
782.31	1068.69
782.63	1068.22
782.96	1073.60
783.28	1075.94
783.61	1084.14
783.93	1091.86
784.26	1092.09
784.58	1085.07
784.91	1089.52
785.23	1079.69
785.56	1072.20
785.88	1092.09
786.21	1086.71
786.53	1074.77
786.86	1082.03
787.18	1090.46
787.51	1080.86
787.83	1084.60
788.16	1079.22
788.48	1075.24
788.81	1064.01
789.13	1054.18
789.46	1056.28
789.78	1063.31
790.10	1068.92
790.43	1072.43
790.75	1084.84
791.08	1076.41
791.40	1080.39
791.73	1090.69
792.05	1087.18
792.37	1076.41
792.70	1085.07
793.02	1090.69
793.35	1073.14
793.67	1078.75
793.99	1089.29
794.32	1082.26
794.64	1080.63
794.96	1086.94
795.29	1086.48
795.61	1080.63
795.93	1092.80
796.26	1091.16
796.58	1100.52
796.91	1103.33
797.23	1100.52
797.55	1084.60
797.87	1075.48
798.20	1062.60
798.52	1052.07
798.84	1056.99
799.17	1066.58
799.49	1067.28
799.81	1075.71
800.14	1084.60
800.46	1082.97
800.78	1083.20
801.10	1097.71
801.43	1096.31
801.75	1097.95
802.07	1097.24
802.40	1090.46
802.72	1086.71
803.04	1082.97
803.36	1078.52
803.69	1083.67
804.01	1093.26
804.33	1092.80
804.65	1089.99
804.97	1096.31
805.30	1090.69
805.62	1088.58
805.94	1097.71
806.26	1100.29
806.58	1100.05
806.91	1097.01
807.23	1089.52
807.55	1079.22
807.87	1084.14
808.19	1077.82
808.52	1081.80
808.84	1089.29
809.16	1085.54
809.48	1073.84
809.80	1069.62
810.12	1063.77
810.44	1060.73
810.77	1059.79
811.09	1072.20
811.41	1078.99
811.73	1077.82
812.05	1082.73
812.37	1089.75
812.69	1084.60
813.01	1088.58
813.33	1091.86
813.66	1086.01
813.98	1091.16
814.30	1093.97
814.62	1080.16
814.94	1075.94
815.26	1068.69
815.58	1056.28
815.90	1055.35
816.22	1062.84
816.54	1067.99
816.86	1085.31
817.18	1093.73
817.50	1097.24
817.82	1091.86
818.14	1095.60
818.46	1083.20
818.78	1073.60
819.10	1062.84
819.42	1056.99
819.74	1056.05
820.06	1060.03
820.38	1064.94
820.70	1074.77
821.02	1089.75
821.34	1086.71
821.66	1076.41
821.98	1078.05
822.30	1066.58
822.62	1068.69
822.94	1064.71
823.26	1078.28
823.58	1077.58
823.90	1081.56
824.22	1078.05
824.54	1081.09
824.86	1082.97
825.18	1075.24
825.50	1075.94
825.81	1066.58
826.13	1066.82
826.45	1065.88
826.77	1068.92
827.09	1073.84
827.41	1076.41
827.73	1080.39
828.05	1076.65
828.36	1077.58
828.68	1072.67
829.00	1079.92
829.32	1086.01
829.64	1078.28
829.96	1073.37
830.28	1079.69
830.59	1065.65
830.91	1053.71
831.23	1067.99
831.55	1069.62
831.87	1073.60
832.19	1080.63
832.50	1093.50
832.82	1086.48
833.14	1101.92
833.46	1092.56
833.78	1094.90
834.09	1089.75
834.41	1088.35
834.73	1075.71
835.05	1077.35
835.36	1075.24
835.68	1066.11
836.00	1076.41
836.32	1075.71
836.63	1074.54
836.95	1082.73
837.27	1088.82
837.59	1078.28
837.90	1085.07
838.22	1092.56
838.54	1088.58
838.85	1085.54
839.17	1093.50
839.49	1092.80
839.80	1085.77
840.12	1089.29
840.44	1086.48
840.76	1084.14
841.07	1076.88
841.39	1071.73
841.71	1066.82
842.02	1070.80
842.34	1066.11
842.65	1066.58
842.97	1076.88
843.29	1074.31
843.60	1072.90
843.92	1075.48
844.24	1085.31
844.55	1087.18
844.87	1096.31
845.18	1108.01
845.50	1114.10
845.82	1111.52
846.13	1102.86
846.45	1092.56
846.76	1082.97
847.08	1086.94
847.40	1083.67
847.71	1084.84
848.03	1089.05
848.34	1084.84
848.66	1077.11
848.97	1073.37
849.29	1075.01
849.60	1070.09
849.92	1067.99
850.24	1063.07
850.55	1062.37
850.87	1067.99
851.18	1073.14
851.50	1076.18
851.81	1079.92
852.13	1083.67
852.44	1074.54
852.76	1075.48
853.07	1082.03
853.39	1092.56
853.70	1097.71
854.01	1098.41
854.33	1097.24
854.64	1096.78
854.96	1083.20
855.27	1077.82
855.59	1082.73
855.90	1081.80
856.22	1088.35
856.53	1088.82
856.84	1084.14
857.16	1092.56
857.47	1084.60
857.79	1076.41
858.10	1077.35
858.41	1075.48
858.73	1065.65
859.04	1077.82
859.36	1074.77
859.67	1080.39
859.98	1085.77
860.30	1092.09
860.61	1094.67
860.92	1085.77
861.24	1070.33
861.55	1076.18
861.87	1064.24
862.18	1054.41
862.49	1066.58
862.81	1072.90
863.12	1071.97
863.43	1076.88
863.74	1078.99
864.06	1074.07
864.37	1065.65
864.68	1067.28
865.00	1063.54
865.31	1069.16
865.62	1070.80
865.94	1079.92
866.25	1079.69
866.56	1082.26
866.87	1076.88
867.19	1084.14
867.50	1082.73
867.81	1085.31
868.12	1083.90
868.44	1076.88
868.75	1069.62
869.06	1070.80
869.37	1069.16
869.68	1072.20
870.00	1079.22
870.31	1079.69
870.62	1080.16
870.93	1067.99
871.24	1070.80
871.56	1077.58
871.87	1089.05
872.18	1083.90
872.49	1088.82
872.80	1085.07
873.12	1073.14
873.43	1060.26
873.74	1080.16
874.05	1077.58
874.36	1071.50
874.67	1081.33
874.98	1088.12
875.29	1084.37
875.61	1089.99
875.92	1090.46
876.23	1082.26
876.54	1069.86
876.85	1062.37
877.16	1071.73
877.47	1082.50
877.78	1089.52
878.09	1097.71
878.40	1094.20
878.72	1088.35
879.03	1085.07
879.34	1076.88
879.65	1087.18
879.96	1096.78
880.27	1088.58
880.58	1086.94
880.89	1088.82
881.20	1074.77
881.51	1071.03
881.82	1069.39
882.13	1074.31
882.44	1081.56
882.75	1090.22
883.06	1086.71
883.37	1092.56
883.68	1077.35
883.99	1073.37
884.30	1071.73
884.61	1067.05
884.92	1073.84
885.23	1077.58
885.54	1067.52
885.85	1066.35
886.16	1070.09
886.47	1068.92
886.78	1077.35
887.08	1084.84
887.39	1085.31
887.70	1081.56
888.01	1064.01
888.32	1063.07
888.63	1064.48
888.94	1062.14
889.25	1061.90
889.56	1067.52
889.87	1059.79
890.17	1058.39
890.48	1061.90
890.79	1072.43
891.10	1076.88
891.41	1087.18
891.72	1082.03
892.03	1079.22
892.34	1065.41
892.64	1062.84
892.95	1058.39
893.26	1066.11
893.57	1064.94
893.88	1081.80
894.18	1086.48
894.49	1090.22
894.80	1089.05
895.11	1089.75
895.42	1091.63
895.72	1082.50
896.03	1083.43
896.34	1087.18
896.65	1086.94
896.96	1074.54
897.26	1088.82
897.57	1084.84
897.88	1089.29
898.19	1084.37
898.49	1087.18
898.80	1082.26
899.11	1075.94
899.41	1074.07
899.72	1082.03
900.03	1091.16
900.34	1080.86
900.64	1090.69
900.95	1085.31
901.26	1079.22
901.56	1063.54
901.87	1075.01
902.18	1067.52
902.48	1064.48
902.79	1067.05
903.10	1067.99
903.40	1065.65
903.71	1074.77
904.02	1078.99
904.32	1073.14
904.63	1071.97
904.94	1067.75
905.24	1073.37
905.55	1074.54
905.85	1073.37
906.16	1072.90
906.47	1065.18
906.77	1050.43
907.08	1052.30
907.38	1055.11
907.69	1060.96
908.00	1066.82
908.30	1066.11
908.61	1064.48
908.91	1067.28
909.22	1057.45
909.52	1058.16
909.83	1056.28
910.14	1061.43
910.44	1061.67
910.75	1073.84
911.05	1076.88
911.36	1090.69
911.66	1090.22
911.97	1096.31
912.27	1083.67
912.58	1088.35
912.88	1079.22
913.19	1077.82
913.49	1068.92
913.80	1074.07
914.10	1074.31
914.41	1084.14
914.71	1076.88
915.01	1077.35
915.32	1076.65
915.62	1066.58
915.93	1052.77
916.23	1056.75
916.54	1058.62
916.84	1064.71
917.15	1075.01
917.45	1083.43
917.75	1082.50
918.06	1082.97
918.36	1081.56
918.67	1078.28
918.97	1082.26
919.27	1080.86
919.58	1081.33
919.88	1082.73
920.18	1086.48
920.49	1084.37
920.79	1088.35
921.10	1089.99
921.40	1084.14
921.70	1079.69
922.01	1075.94
922.31	1070.80
922.61	1064.94
922.92	1058.86
923.22	1055.35
923.52	1056.05
923.82	1054.18
924.13	1057.22
924.43	1051.84
924.73	1058.16
925.04	1052.30
925.34	1062.14
925.64	1065.41
925.94	1080.16
926.25	1076.65
926.55	1075.48
926.85	1069.39
927.15	1073.14
927.46	1076.41
927.76	1083.43
928.06	1092.56
928.36	1089.75
928.67	1079.69
928.97	1075.94
929.27	1065.65
929.57	1069.86
929.87	1068.69
930.18	1076.41
930.48	1083.90
930.78	1082.50
931.08	1071.50
931.38	1074.77
931.69	1078.28
931.99	1081.33
932.29	1088.82
932.59	1097.71
932.89	1101.46
933.19	1091.86
933.49	1080.86
933.80	1074.31
934.10	1066.82
934.40	1072.43
934.70	1075.48
935.00	1078.05
935.30	1082.26
935.60	1086.71
935.90	1074.54
936.20	1079.22
936.50	1078.75
936.81	1082.50
937.11	1085.77
937.41	1097.01
937.71	1094.43
938.01	1103.80
938.31	1102.86
938.61	1106.84
938.91	1090.69
939.21	1087.88
939.51	1072.90
939.81	1073.84
940.11	1060.50
940.41	1071.97
940.71	1081.09
941.01	1099.35
941.31	1093.03
941.61	1097.71
941.91	1096.54
942.21	1087.88
942.51	1066.58
942.81	1076.88
943.11	1071.03
943.41	1071.03
943.71	1070.09
944.01	1078.99
944.31	1066.82
944.61	1062.14
944.90	1066.35
945.20	1062.37
945.50	1066.35
945.80	1064.48
946.10	1072.67
946.40	1054.41
946.70	1055.11
947.00	1047.86
947.30	1056.52
947.60	1054.65
947.89	1067.05
948.19	1071.73
948.49	1081.33
948.79	1077.35
949.09	1075.24
949.39	1079.22
949.69	1079.92
949.98	1080.39
950.28	1072.67
950.58	1077.58
950.88	1078.05
951.18	1071.03
951.48	1063.07
951.77	1067.28
952.07	1066.35
952.37	1067.05
952.67	1077.11
952.97	1077.82
953.26	1089.99
953.56	1102.16
953.86	1099.82
954.16	1098.88
954.45	1108.24
954.75	1104.03
955.05	1085.31
955.35	1086.71
955.64	1091.86
955.94	1088.35
956.24	1081.56
956.54	1092.80
956.83	1091.16
957.13	1076.88
957.43	1062.37
957.72	1073.37
958.02	1063.77
958.32	1062.14
958.61	1064.24
958.91	1071.03
959.21	1067.28
959.50	1078.28
959.80	1076.18
960.10	1078.28
960.39	1070.80
960.69	1067.05
960.99	1062.84
961.28	1062.14
961.58	1070.09
961.87	1083.20
962.17	1085.07
962.47	1079.92
962.76	1078.28
963.06	1070.33
963.36	1070.56
963.65	1070.09
963.95	1080.16
964.24	1091.86
964.54	1086.71
964.83	1089.99
965.13	1090.46
965.42	1091.16
965.72	1084.37
966.02	1089.05
966.31	1076.65
966.61	1078.28
966.90	1076.88
967.20	1070.56
967.49	1079.46
967.79	1092.56
968.08	1089.99
968.38	1080.16
968.67	1086.94
968.97	1080.39
969.26	1080.16
969.56	1072.67
969.85	1080.39
970.15	1075.94
970.44	1074.54
970.74	1071.26
971.03	1078.52
971.32	1070.56
971.62	1088.35
971.91	1088.82
972.21	1084.84
972.50	1086.01
972.80	1095.37
973.09	1074.54
973.38	1079.69
973.68	1076.18
973.97	1076.65
974.27	1062.37
974.56	1066.82
974.85	1058.86
975.15	1066.58
975.44	1059.56
975.73	1067.99
976.03	1064.94
976.32	1071.26
976.61	1072.43
976.91	1075.01
977.20	1070.09
977.49	1075.01
977.79	1070.33
978.08	1072.20
978.37	1078.99
978.67	1080.16
978.96	1081.09
979.25	1085.07
979.55	1082.73
979.84	1077.82
980.13	1081.56
980.42	1074.54
980.72	1079.92
981.01	1079.69
981.30	1076.88
981.59	1080.86
981.89	1083.67
982.18	1082.50
982.47	1078.75
982.76	1084.60
983.06	1076.88
983.35	1072.20
983.64	1066.58
983.93	1063.07
984.22	1059.56
984.52	1062.60
984.81	1062.37
985.10	1073.37
985.39	1069.86
985.68	1071.50
985.97	1074.77
986.27	1081.09
986.56	1066.82
986.85	1074.07
987.14	1078.28
987.43	1079.46
987.72	1083.90
988.01	1094.20
988.31	1096.07
988.60	1094.67
988.89	1092.56
989.18	1097.01
989.47	1090.46
989.76	1082.73
990.05	1081.33
990.34	1072.90
990.63	1067.05
990.92	1069.39
991.21	1077.35
991.51	1084.14
991.80	1097.95
992.09	1101.22
992.38	1091.16
992.67	1091.86
992.96	1079.46
993.25	1075.94
993.54	1066.11
993.83	1070.56
994.12	1075.24
994.41	1082.26
994.70	1081.09
994.99	1083.67
995.28	1080.63
995.57	1075.24
995.86	1076.41
996.15	1081.56
996.44	1092.09
996.73	1101.46
997.02	1098.18
997.31	1084.37
997.59	1076.88
997.88	1067.05
998.17	1058.86
998.46	1053.94
998.75	1062.37
999.04	1053.71
999.33	1058.86
999.62	1063.31
999.91	1068.69
1000.20	1065.18
1000.49	1076.65
1000.77	1066.35
1001.06	1064.71
1001.35	1068.92
1001.64	1077.11
1001.93	1078.52
1002.22	1087.18
1002.51	1098.41
1002.79	1105.67
1003.08	1100.52
1003.37	1097.24
1003.66	1092.09
1003.95	1082.03
1004.23	1067.28
1004.52	1064.94
1004.81	1057.22
1005.10	1058.86
1005.39	1062.37
1005.67	1066.11
1005.96	1074.07
1006.25	1084.60
1006.54	1090.92
1006.83	1079.69
1007.11	1081.09
1007.40	1078.75
1007.69	1072.90
1007.97	1068.22
1008.26	1083.20
1008.55	1084.14
1008.84	1078.05
1009.12	1091.39
1009.41	1095.14
1009.70	1089.05
1009.98	1088.35
1010.27	1111.52
1010.56	1102.39
1010.85	1095.84
1011.13	1091.86
1011.42	1096.78
1011.71	1079.46
1011.99	1080.16
1012.28	1089.29
1012.56	1082.97
1012.85	1073.60
1013.14	1068.45
1013.42	1067.75
1013.71	1058.16
1014.00	1070.33
1014.28	1067.75
1014.57	1067.99
1014.85	1059.09
1015.14	1069.39
1015.43	1066.58
1015.71	1078.05
1016.00	1089.52
1016.28	1092.09
1016.57	1088.12
1016.85	1090.22
1017.14	1089.05
1017.43	1081.09
1017.71	1087.88
1018.00	1089.52
1018.28	1091.63
1018.57	1086.94
1018.85	1086.71
1019.14	1081.80
1019.42	1074.31
1019.71	1075.71
1019.99	1072.20
1020.28	1078.05
1020.56	1073.37
1020.85	1088.82
1021.13	1080.86
1021.42	1078.52
1021.70	1071.26
1021.99	1070.09
1022.27	1055.82
1022.55	1028.67
1022.84	1071.97
>>>>>End Processed Spectral Data<<<<<
