SpectraSuite Data File
++++++++++++++++++++++++++++++++++++
Date: Mon Aug 26 10:24:51 PDT 2019
User: corrico
Dark Spectrum Present: No
Reference Spectrum Present: No
Number of Sampled Component Spectra: 1
Spectrometers: USB2+H06089
Integration Time (usec): 10000 (USB2+H06089)
Spectra Averaged: 2 (USB2+H06089)
Boxcar Smoothing: 2 (USB2+H06089)
Correct for Electrical Dark: No (USB2+H06089)
Strobe/Lamp Enabled: No (USB2+H06089)
Correct for Detector Non-linearity: No (USB2+H06089)
Correct for Stray Light: No (USB2+H06089)
Number of Pixels in Processed Spectrum: 2048
>>>>>Begin Processed Spectral Data<<<<<
339.70	1036.86
340.07	1036.86
340.45	1003.15
340.82	984.20
341.19	954.47
341.57	928.02
341.94	924.28
342.31	913.28
342.69	906.02
343.06	907.19
343.43	910.47
343.81	907.66
344.18	902.51
344.55	908.36
344.93	916.09
345.30	921.47
345.67	922.87
346.04	936.92
346.42	938.55
346.79	938.79
347.16	949.56
347.54	965.00
347.91	971.56
348.28	986.07
348.65	1004.09
349.03	1008.07
349.40	1020.71
349.77	1031.94
350.14	1033.11
350.52	1048.56
350.89	1060.73
351.26	1058.16
351.63	1059.56
352.01	1073.14
352.38	1074.07
352.75	1071.97
353.12	1084.37
353.50	1076.88
353.87	1068.45
354.24	1064.01
354.61	1062.37
354.98	1068.22
355.36	1087.18
355.73	1099.12
356.10	1099.82
356.47	1093.73
356.84	1077.11
357.22	1069.62
357.59	1064.48
357.96	1058.86
358.33	1074.54
358.70	1078.75
359.08	1090.22
359.45	1098.65
359.82	1101.46
360.19	1099.35
360.56	1107.07
360.94	1097.95
361.31	1088.35
361.68	1085.07
362.05	1081.56
362.42	1079.69
362.79	1081.56
363.16	1077.82
363.54	1081.33
363.91	1082.50
364.28	1079.22
364.65	1081.33
365.02	1088.58
365.39	1093.50
365.76	1083.67
366.14	1084.37
366.51	1077.11
366.88	1078.75
367.25	1078.28
367.62	1087.41
367.99	1082.03
368.36	1092.56
368.73	1081.80
369.10	1074.07
369.48	1069.39
369.85	1077.58
370.22	1068.45
370.59	1074.31
370.96	1084.14
371.33	1082.50
371.70	1078.05
372.07	1082.73
372.44	1087.65
372.81	1091.86
373.18	1099.82
373.55	1095.84
373.93	1092.33
374.30	1099.35
374.67	1084.14
375.04	1092.80
375.41	1098.65
375.78	1094.43
376.15	1086.48
376.52	1094.90
376.89	1091.16
377.26	1090.46
377.63	1104.97
378.00	1109.88
378.37	1111.75
378.74	1116.67
379.11	1111.99
379.48	1112.22
379.85	1108.48
380.22	1100.52
380.59	1086.94
380.96	1097.01
381.33	1091.86
381.70	1083.90
382.07	1088.12
382.44	1093.50
382.81	1084.84
383.18	1083.67
383.55	1088.35
383.92	1087.88
384.29	1091.16
384.66	1097.48
385.03	1094.43
385.40	1106.84
385.77	1115.73
386.14	1114.56
386.51	1115.73
386.88	1121.58
387.25	1118.07
387.62	1122.05
387.99	1124.39
388.36	1122.75
388.73	1120.88
389.10	1114.33
389.46	1098.88
389.83	1092.33
390.20	1090.92
390.57	1090.69
390.94	1092.56
391.31	1099.12
391.68	1098.65
392.05	1109.18
392.42	1102.39
392.79	1099.58
393.16	1101.22
393.53	1100.75
393.89	1095.60
394.26	1108.01
394.63	1111.52
395.00	1116.67
395.37	1125.10
395.74	1123.22
396.11	1121.12
396.48	1114.09
396.84	1109.41
397.21	1102.86
397.58	1104.26
397.95	1110.35
398.32	1127.44
398.69	1129.54
399.06	1131.88
399.42	1133.99
399.79	1135.86
400.16	1127.44
400.53	1134.69
400.90	1142.42
401.27	1145.22
401.64	1152.48
402.00	1165.12
402.37	1160.20
402.74	1164.88
403.11	1168.86
403.48	1161.84
403.84	1167.69
404.21	1186.65
404.58	1193.44
404.95	1207.25
405.32	1228.08
405.68	1230.42
406.05	1235.33
406.42	1255.00
406.79	1267.40
407.16	1279.10
407.52	1298.30
407.89	1318.66
408.26	1327.08
408.63	1337.85
408.99	1361.26
409.36	1387.00
409.73	1414.62
410.10	1445.75
410.47	1480.62
410.83	1508.01
411.20	1540.54
411.57	1573.31
411.94	1592.97
412.30	1626.91
412.67	1675.12
413.04	1714.91
413.40	1762.66
413.77	1846.21
414.14	1909.64
414.51	1969.79
414.87	2050.08
415.24	2127.78
415.61	2190.04
415.97	2267.75
416.34	2347.79
416.71	2430.88
417.08	2522.86
417.44	2619.53
417.81	2742.64
418.18	2869.03
418.54	2998.93
418.91	3146.15
419.28	3299.69
419.64	3436.84
420.01	3602.08
420.38	3757.50
420.74	3914.55
421.11	4113.26
421.48	4322.97
421.84	4521.21
422.21	4733.50
422.58	4975.28
422.94	5204.88
423.31	5446.43
423.68	5724.25
424.04	6028.99
424.41	6319.45
424.77	6646.65
425.14	6949.05
425.51	7265.73
425.87	7614.46
426.24	7985.21
426.61	8327.86
426.97	8816.56
427.34	9249.33
427.70	9709.48
428.07	10187.65
428.44	10719.19
428.80	11191.04
429.17	11749.02
429.53	12322.92
429.90	12956.04
430.27	13517.06
430.63	14059.60
431.00	14720.57
431.36	15444.73
431.73	16008.80
432.09	16663.44
432.46	17359.99
432.83	17947.23
433.19	18460.04
433.56	19145.58
433.92	19822.23
434.29	20438.96
434.65	21159.15
435.02	21830.64
435.38	22479.68
435.75	23037.42
436.11	23690.67
436.48	24081.54
436.84	24538.41
437.21	24963.92
437.57	25394.81
437.94	25744.72
438.30	26221.02
438.67	26478.71
439.03	26631.55
439.40	26782.52
439.76	26724.47
440.13	26592.46
440.49	26573.74
440.86	26342.50
441.22	26113.12
441.59	25801.13
441.95	25434.13
442.32	24905.87
442.68	24542.39
443.05	23965.68
443.41	23523.55
443.78	22949.65
444.14	22444.33
444.51	21787.58
444.87	21399.52
445.24	20913.62
445.60	20497.24
445.96	19941.36
446.33	19461.09
446.69	18838.04
447.06	18323.12
447.42	17775.67
447.79	17295.15
448.15	16951.56
448.51	16505.69
448.88	16087.67
449.24	15636.65
449.61	15345.72
449.97	14903.13
450.33	14545.96
450.70	14114.13
451.06	13736.14
451.43	13267.09
451.79	12936.37
452.15	12586.93
452.52	12290.15
452.88	12043.69
453.24	11778.04
453.61	11513.10
453.97	11257.51
454.34	10960.49
454.70	10742.36
455.06	10509.24
455.43	10200.29
455.79	9865.12
456.15	9556.17
456.52	9166.01
456.88	8867.12
457.24	8567.53
457.61	8342.37
457.97	8147.64
458.33	7929.97
458.70	7675.55
459.06	7431.43
459.42	7203.23
459.79	6942.26
460.15	6723.89
460.51	6518.39
460.88	6328.11
461.24	6107.86
461.60	5916.17
461.96	5744.61
462.33	5571.18
462.69	5406.64
463.05	5272.52
463.42	5135.14
463.78	4996.81
464.14	4869.72
464.50	4766.27
464.87	4651.11
465.23	4575.75
465.59	4483.53
465.95	4392.72
466.32	4293.01
466.68	4215.77
467.04	4089.62
467.40	3981.25
467.77	3887.16
468.13	3782.77
468.49	3679.56
468.85	3618.47
469.22	3575.17
469.58	3519.70
469.94	3501.68
470.30	3435.44
470.66	3380.20
471.03	3298.75
471.39	3235.09
471.75	3142.40
472.11	3085.06
472.47	3035.91
472.84	2997.52
473.20	2954.46
473.56	2907.65
473.92	2872.07
474.28	2812.86
474.65	2754.34
475.01	2700.28
475.37	2656.74
475.73	2610.40
476.09	2568.97
476.45	2544.63
476.81	2502.50
477.18	2461.07
477.54	2428.31
477.90	2392.03
478.26	2341.00
478.62	2298.17
478.98	2276.17
479.34	2241.53
479.71	2227.02
480.07	2206.19
480.43	2203.15
480.79	2190.04
481.15	2167.80
481.51	2143.70
481.87	2111.40
482.23	2071.84
482.59	2026.67
482.96	2012.86
483.32	1978.92
483.68	1967.69
484.04	1948.26
484.40	1935.86
484.76	1902.39
485.12	1885.30
485.48	1864.94
485.84	1842.70
486.20	1817.89
486.56	1812.98
486.92	1798.23
487.28	1780.91
487.64	1771.55
488.00	1765.93
488.37	1750.25
488.73	1735.74
489.09	1724.74
489.45	1705.78
489.81	1686.59
490.17	1661.78
490.53	1638.14
490.89	1608.42
491.25	1597.88
491.61	1570.73
491.97	1556.46
492.33	1542.41
492.69	1538.20
493.05	1517.60
493.41	1526.50
493.77	1507.30
494.13	1497.01
494.49	1486.01
494.85	1482.96
495.21	1460.26
495.57	1440.37
495.93	1436.85
496.29	1430.77
496.64	1420.24
497.00	1408.30
497.36	1405.73
497.72	1376.94
498.08	1357.74
498.44	1351.66
498.80	1346.51
499.16	1344.87
499.52	1358.68
499.88	1368.75
500.24	1357.04
500.60	1348.85
500.96	1338.08
501.32	1326.62
501.68	1310.93
502.03	1299.00
502.39	1291.51
502.75	1282.61
503.11	1275.83
503.47	1268.80
503.83	1266.46
504.19	1260.85
504.55	1259.91
504.91	1252.65
505.26	1247.97
505.62	1250.78
505.98	1240.95
506.34	1245.63
506.70	1233.70
507.06	1235.57
507.42	1226.67
507.78	1228.31
508.13	1220.59
508.49	1213.10
508.85	1196.95
509.21	1196.95
509.57	1196.95
509.93	1189.46
510.28	1192.74
510.64	1195.55
511.00	1183.84
511.36	1178.69
511.72	1176.59
512.07	1182.91
512.43	1184.31
512.79	1187.35
513.15	1182.67
513.51	1185.25
513.86	1185.95
514.22	1176.12
514.58	1180.33
514.94	1178.69
515.30	1177.29
515.65	1170.74
516.01	1171.91
516.37	1163.01
516.73	1170.03
517.08	1174.95
517.44	1170.50
517.80	1181.27
518.16	1181.97
518.51	1164.88
518.87	1159.27
519.23	1160.20
519.59	1145.69
519.94	1148.50
520.30	1162.31
520.66	1159.50
521.01	1155.05
521.37	1156.22
521.73	1153.18
522.09	1144.52
522.44	1139.37
522.80	1148.73
523.16	1150.37
523.51	1150.14
523.87	1149.20
524.23	1151.54
524.58	1150.84
524.94	1152.95
525.30	1140.78
525.65	1144.52
526.01	1135.39
526.37	1129.54
526.72	1133.76
527.08	1135.39
527.44	1130.48
527.79	1126.97
528.15	1126.03
528.51	1109.65
528.86	1119.24
529.22	1119.01
529.58	1121.82
529.93	1122.99
530.29	1122.52
530.65	1110.35
531.00	1106.37
531.36	1112.46
531.71	1101.46
532.07	1114.33
532.43	1123.46
532.78	1128.84
533.14	1129.07
533.49	1127.67
533.85	1118.78
534.21	1112.69
534.56	1106.37
534.92	1101.46
535.27	1108.24
535.63	1111.75
535.98	1116.90
536.34	1117.37
536.69	1116.44
537.05	1116.90
537.41	1111.75
537.76	1107.31
538.12	1107.31
538.47	1107.78
538.83	1103.09
539.18	1095.84
539.54	1090.46
539.89	1086.48
540.25	1088.12
540.60	1086.01
540.96	1089.75
541.31	1097.95
541.67	1100.52
542.02	1102.86
542.38	1103.09
542.73	1101.69
543.09	1099.35
543.44	1106.61
543.80	1103.33
544.15	1108.48
544.51	1111.75
544.86	1106.14
545.22	1103.56
545.57	1101.22
545.93	1102.16
546.28	1100.05
546.64	1108.24
546.99	1104.73
547.35	1095.37
547.70	1096.07
548.05	1100.75
548.41	1103.80
548.76	1108.95
549.12	1111.99
549.47	1102.16
549.83	1098.65
550.18	1088.58
550.53	1086.24
550.89	1098.18
551.24	1100.05
551.60	1103.56
551.95	1110.35
552.30	1106.61
552.66	1107.31
553.01	1108.95
553.37	1102.86
553.72	1101.22
554.07	1111.52
554.43	1108.48
554.78	1112.46
555.13	1113.86
555.49	1117.37
555.84	1115.27
556.19	1109.65
556.55	1112.22
556.90	1121.35
557.26	1108.71
557.61	1110.82
557.96	1112.69
558.32	1117.37
558.67	1108.48
559.02	1114.10
559.37	1109.88
559.73	1110.12
560.08	1097.95
560.43	1106.37
560.79	1102.16
561.14	1100.99
561.49	1102.39
561.85	1097.95
562.20	1090.69
562.55	1091.63
562.90	1091.16
563.26	1093.97
563.61	1100.99
563.96	1105.44
564.32	1108.24
564.67	1110.12
565.02	1102.39
565.37	1100.29
565.73	1093.03
566.08	1095.37
566.43	1100.29
566.78	1116.44
567.14	1120.18
567.49	1123.22
567.84	1122.75
568.19	1116.90
568.54	1104.73
568.90	1108.01
569.25	1113.86
569.60	1111.05
569.95	1110.82
570.31	1112.69
570.66	1108.01
571.01	1099.58
571.36	1096.78
571.71	1096.31
572.06	1085.77
572.42	1088.82
572.77	1089.75
573.12	1096.07
573.47	1082.97
573.82	1087.88
574.18	1089.29
574.53	1092.56
574.88	1085.07
575.23	1096.31
575.58	1093.50
575.93	1089.52
576.28	1086.24
576.64	1085.54
576.99	1077.35
577.34	1083.20
577.69	1084.37
578.04	1091.86
578.39	1109.88
578.74	1122.29
579.09	1125.10
579.44	1121.82
579.80	1107.78
580.15	1092.56
580.50	1090.22
580.85	1090.69
581.20	1083.90
581.55	1099.82
581.90	1103.80
582.25	1103.33
582.60	1111.52
582.95	1118.78
583.30	1112.46
583.65	1123.93
584.00	1119.48
584.35	1108.48
584.71	1105.90
585.06	1112.46
585.41	1101.69
585.76	1104.50
586.11	1098.18
586.46	1104.26
586.81	1081.80
587.16	1073.14
587.51	1061.43
587.86	1078.52
588.21	1077.11
588.56	1089.05
588.91	1098.18
589.26	1111.52
589.61	1098.88
589.96	1097.48
590.31	1096.31
590.66	1091.63
591.01	1090.69
591.36	1093.97
591.71	1095.60
592.06	1095.84
592.41	1096.78
592.76	1091.86
593.10	1091.86
593.45	1091.16
593.80	1088.82
594.15	1092.80
594.50	1091.86
594.85	1093.73
595.20	1097.95
595.55	1101.22
595.90	1102.16
596.25	1101.92
596.60	1096.54
596.95	1097.71
597.30	1100.05
597.64	1141.25
597.99	1145.93
598.34	1140.54
598.69	1133.05
599.04	1130.71
599.39	1085.54
599.74	1076.65
600.09	1085.54
600.44	1089.05
600.78	1089.29
601.13	1085.54
601.48	1087.88
601.83	1090.69
602.18	1088.12
602.53	1097.95
602.88	1098.41
603.22	1101.46
603.57	1095.84
603.92	1095.14
604.27	1088.12
604.62	1085.77
604.97	1086.71
605.31	1077.82
605.66	1079.92
606.01	1077.11
606.36	1085.54
606.71	1079.46
607.05	1084.37
607.40	1079.69
607.75	1081.80
608.10	1079.92
608.44	1080.16
608.79	1086.24
609.14	1082.73
609.49	1086.24
609.84	1082.26
610.18	1096.78
610.53	1100.52
610.88	1110.12
611.23	1111.29
611.57	1116.44
611.92	1108.01
612.27	1101.92
612.62	1104.26
612.96	1101.92
613.31	1097.01
613.66	1091.39
614.00	1090.46
614.35	1084.84
614.70	1087.88
615.05	1080.16
615.39	1079.22
615.74	1078.05
616.09	1084.60
616.43	1071.50
616.78	1079.92
617.13	1086.48
617.47	1092.56
617.82	1089.05
618.17	1090.22
618.51	1086.94
618.86	1087.18
619.21	1083.20
619.55	1083.43
619.90	1090.46
620.25	1089.99
620.59	1089.99
620.94	1097.01
621.29	1091.39
621.63	1082.03
621.98	1098.18
622.32	1104.73
622.67	1102.63
623.02	1106.61
623.36	1117.84
623.71	1102.63
624.05	1091.39
624.40	1092.56
624.75	1083.20
625.09	1082.03
625.44	1093.50
625.78	1091.16
626.13	1089.52
626.48	1097.95
626.82	1095.37
627.17	1081.33
627.51	1093.73
627.86	1077.35
628.20	1077.58
628.55	1079.22
628.89	1086.71
629.24	1086.24
629.58	1104.26
629.93	1106.84
630.28	1104.50
630.62	1105.20
630.97	1089.75
631.31	1086.01
631.66	1084.60
632.00	1082.97
632.35	1081.33
632.69	1083.43
633.04	1075.24
633.38	1077.82
633.73	1079.46
634.07	1076.18
634.42	1085.77
634.76	1096.31
635.11	1088.58
635.45	1092.80
635.79	1098.18
636.14	1091.39
636.48	1078.52
636.83	1075.48
637.17	1065.88
637.52	1066.82
637.86	1071.50
638.21	1085.77
638.55	1090.46
638.89	1101.22
639.24	1098.41
639.58	1098.88
639.93	1093.26
640.27	1094.43
640.61	1088.58
640.96	1087.88
641.30	1084.14
641.65	1086.01
641.99	1086.48
642.33	1093.26
642.68	1095.60
643.02	1092.56
643.37	1094.90
643.71	1099.35
644.05	1085.54
644.40	1082.26
644.74	1090.69
645.08	1095.14
645.43	1096.31
645.77	1108.24
646.11	1108.01
646.46	1097.71
646.80	1081.80
647.14	1072.90
647.49	1063.77
647.83	1061.20
648.17	1065.88
648.52	1074.07
648.86	1069.86
649.20	1083.90
649.55	1090.46
649.89	1093.26
650.23	1090.22
650.57	1100.29
650.92	1094.20
651.26	1099.58
651.60	1099.58
651.95	1097.24
652.29	1100.99
652.63	1097.48
652.97	1084.84
653.32	1088.82
653.66	1097.48
654.00	1098.18
654.34	1098.18
654.69	1101.22
655.03	1094.67
655.37	1090.22
655.71	1090.69
656.05	1094.67
656.40	1092.33
656.74	1090.46
657.08	1089.75
657.42	1084.84
657.76	1085.54
658.11	1088.12
658.45	1086.01
658.79	1082.97
659.13	1082.50
659.47	1076.18
659.82	1086.71
660.16	1095.84
660.50	1099.12
660.84	1087.41
661.18	1089.75
661.52	1076.41
661.87	1081.80
662.21	1081.09
662.55	1086.01
662.89	1087.65
663.23	1097.48
663.57	1091.63
663.91	1094.90
664.25	1101.92
664.60	1100.29
664.94	1083.67
665.28	1087.18
665.62	1082.03
665.96	1083.90
666.30	1079.69
666.64	1083.20
666.98	1070.80
667.32	1065.18
667.66	1057.45
668.01	1060.03
668.35	1069.62
668.69	1071.50
669.03	1080.16
669.37	1086.94
669.71	1094.67
670.05	1089.05
670.39	1094.90
670.73	1096.54
671.07	1088.82
671.41	1084.14
671.75	1091.16
672.09	1082.50
672.43	1086.24
672.77	1091.63
673.11	1081.80
673.45	1081.09
673.79	1081.33
674.13	1077.35
674.47	1076.18
674.81	1080.63
675.15	1081.09
675.49	1092.56
675.83	1102.39
676.17	1099.35
676.51	1105.44
676.85	1099.35
677.19	1103.33
677.53	1100.05
677.87	1100.05
678.21	1096.78
678.55	1092.56
678.89	1083.20
679.23	1073.60
679.57	1074.54
679.90	1078.99
680.24	1085.31
680.58	1084.84
680.92	1090.69
681.26	1101.69
681.60	1098.18
681.94	1086.24
682.28	1083.90
682.62	1076.18
682.96	1067.28
683.29	1067.52
683.63	1080.86
683.97	1088.82
684.31	1101.46
684.65	1098.88
684.99	1096.78
685.33	1088.58
685.67	1089.99
686.00	1082.50
686.34	1082.73
686.68	1079.46
687.02	1090.46
687.36	1085.54
687.70	1083.90
688.03	1094.20
688.37	1095.37
688.71	1092.09
689.05	1095.37
689.39	1107.31
689.72	1107.54
690.06	1116.20
690.40	1111.29
690.74	1115.27
691.08	1108.48
691.41	1101.92
691.75	1089.29
692.09	1087.41
692.43	1081.09
692.76	1070.09
693.10	1063.77
693.44	1067.75
693.78	1077.58
694.11	1084.37
694.45	1087.41
694.79	1098.65
695.13	1097.48
695.46	1088.12
695.80	1077.58
696.14	1080.86
696.48	1064.94
696.81	1071.03
697.15	1070.09
697.49	1066.82
697.82	1061.20
698.16	1076.65
698.50	1082.97
698.83	1089.99
699.17	1098.18
699.51	1095.84
699.84	1085.77
700.18	1073.14
700.52	1079.22
700.85	1073.14
701.19	1084.14
701.53	1090.92
701.86	1093.50
702.20	1083.20
702.54	1081.56
702.87	1075.24
703.21	1070.33
703.55	1078.52
703.88	1087.88
704.22	1103.56
704.55	1098.65
704.89	1092.56
705.23	1092.80
705.56	1087.18
705.90	1072.20
706.23	1077.35
706.57	1091.86
706.91	1078.99
707.24	1083.20
707.58	1088.35
707.91	1088.35
708.25	1077.11
708.58	1082.50
708.92	1078.75
709.26	1080.39
709.59	1089.05
709.93	1097.71
710.26	1103.33
710.60	1102.39
710.93	1107.31
711.27	1100.29
711.60	1097.24
711.94	1096.54
712.27	1090.22
712.61	1086.94
712.94	1078.05
713.28	1082.26
713.61	1083.90
713.95	1099.58
714.28	1094.43
714.62	1108.48
714.95	1102.86
715.29	1093.97
715.62	1083.43
715.96	1086.24
716.29	1090.69
716.63	1096.78
716.96	1105.90
717.29	1111.99
717.63	1111.05
717.96	1103.80
718.30	1099.12
718.63	1097.95
718.97	1093.73
719.30	1090.46
719.63	1087.41
719.97	1085.54
720.30	1076.18
720.64	1074.77
720.97	1085.07
721.30	1084.14
721.64	1099.58
721.97	1097.95
722.31	1094.43
722.64	1093.03
722.97	1088.58
723.31	1074.54
723.64	1070.56
723.97	1078.52
724.31	1073.60
724.64	1072.67
724.98	1077.58
725.31	1090.22
725.64	1081.33
725.98	1072.43
726.31	1078.28
726.64	1070.09
726.97	1068.45
727.31	1074.77
727.64	1085.77
727.97	1096.07
728.31	1099.58
728.64	1100.29
728.97	1107.31
729.31	1110.12
729.64	1098.18
729.97	1116.67
730.30	1105.90
730.64	1092.33
730.97	1089.05
731.30	1100.05
731.63	1078.75
731.97	1085.31
732.30	1092.56
732.63	1088.58
732.96	1076.41
733.30	1081.33
733.63	1081.80
733.96	1074.54
734.29	1080.63
734.63	1073.60
734.96	1064.71
735.29	1065.88
735.62	1069.62
735.95	1067.28
736.29	1083.90
736.62	1085.31
736.95	1093.97
737.28	1098.41
737.61	1101.69
737.94	1090.46
738.28	1095.37
738.61	1093.73
738.94	1090.92
739.27	1087.18
739.60	1093.73
739.93	1099.35
740.27	1090.92
740.60	1092.56
740.93	1090.92
741.26	1095.14
741.59	1085.31
741.92	1088.35
742.25	1082.73
742.58	1073.14
742.91	1066.11
743.25	1061.67
743.58	1061.90
743.91	1056.99
744.24	1058.39
744.57	1053.24
744.90	1057.45
745.23	1055.82
745.56	1059.09
745.89	1061.43
746.22	1068.22
746.55	1071.03
746.88	1079.46
747.21	1088.82
747.54	1092.80
747.87	1089.05
748.20	1095.84
748.53	1087.65
748.87	1081.80
749.20	1078.99
749.53	1074.77
749.86	1073.37
750.19	1072.90
750.52	1076.41
750.85	1080.39
751.18	1090.46
751.51	1074.77
751.84	1073.37
752.16	1069.39
752.49	1063.77
752.82	1060.03
753.15	1069.86
753.48	1075.24
753.81	1073.60
754.14	1076.41
754.47	1075.01
754.80	1071.73
755.13	1071.73
755.46	1078.28
755.79	1078.52
756.12	1087.65
756.45	1091.63
756.78	1094.20
757.11	1094.43
757.43	1097.24
757.76	1095.84
758.09	1103.33
758.42	1097.24
758.75	1089.99
759.08	1087.88
759.41	1087.88
759.74	1085.07
760.07	1084.60
760.39	1086.71
760.72	1090.92
761.05	1083.67
761.38	1075.48
761.71	1074.31
762.04	1070.09
762.36	1070.80
762.69	1075.94
763.02	1078.99
763.35	1089.29
763.68	1102.86
764.01	1098.88
764.33	1094.43
764.66	1097.95
764.99	1098.65
765.32	1098.88
765.65	1099.35
765.97	1103.56
766.30	1098.41
766.63	1086.71
766.96	1072.20
767.28	1073.37
767.61	1076.18
767.94	1083.67
768.27	1084.37
768.59	1093.97
768.92	1094.43
769.25	1081.80
769.58	1070.56
769.90	1069.39
770.23	1069.39
770.56	1063.54
770.89	1063.77
771.21	1065.18
771.54	1074.31
771.87	1070.80
772.19	1075.94
772.52	1079.46
772.85	1088.12
773.17	1088.35
773.50	1093.50
773.83	1087.65
774.15	1090.92
774.48	1091.16
774.81	1082.97
775.13	1073.14
775.46	1089.29
775.79	1085.54
776.11	1084.84
776.44	1088.12
776.77	1096.78
777.09	1089.29
777.42	1097.01
777.74	1098.65
778.07	1088.35
778.40	1089.99
778.72	1075.94
779.05	1066.11
779.37	1056.52
779.70	1056.99
780.03	1048.56
780.35	1048.09
780.68	1052.54
781.00	1050.43
781.33	1058.39
781.65	1056.52
781.98	1068.69
782.31	1061.90
782.63	1064.01
782.96	1064.24
783.28	1069.16
783.61	1060.96
783.93	1058.16
784.26	1054.18
784.58	1059.79
784.91	1060.03
785.23	1071.97
785.56	1080.63
785.88	1097.95
786.21	1098.41
786.53	1109.41
786.86	1091.63
787.18	1089.05
787.51	1085.07
787.83	1080.86
788.16	1061.20
788.48	1071.26
788.81	1073.14
789.13	1066.11
789.46	1064.24
789.78	1072.20
790.10	1074.31
790.43	1071.03
790.75	1071.26
791.08	1070.80
791.40	1075.71
791.73	1076.65
792.05	1081.80
792.37	1079.46
792.70	1081.09
793.02	1074.54
793.35	1077.11
793.67	1077.35
793.99	1082.97
794.32	1082.73
794.64	1090.69
794.96	1081.80
795.29	1084.60
795.61	1076.65
795.93	1076.65
796.26	1073.84
796.58	1081.80
796.91	1082.26
797.23	1086.71
797.55	1089.75
797.87	1081.09
798.20	1087.41
798.52	1094.20
798.84	1102.16
799.17	1091.63
799.49	1090.22
799.81	1079.46
800.14	1066.82
800.46	1062.37
800.78	1073.14
801.10	1073.37
801.43	1084.60
801.75	1091.39
802.07	1098.41
802.40	1105.67
802.72	1117.14
803.04	1099.58
803.36	1106.61
803.69	1091.63
804.01	1079.69
804.33	1077.58
804.65	1097.71
804.97	1080.16
805.30	1088.12
805.62	1083.67
805.94	1081.56
806.26	1064.24
806.58	1067.75
806.91	1062.14
807.23	1073.14
807.55	1073.84
807.87	1082.73
808.19	1085.07
808.52	1093.03
808.84	1088.58
809.16	1091.39
809.48	1078.52
809.80	1084.37
810.12	1076.41
810.44	1072.90
810.77	1069.39
811.09	1076.88
811.41	1063.31
811.73	1069.86
812.05	1068.22
812.37	1068.69
812.69	1065.65
813.01	1081.33
813.33	1068.22
813.66	1067.99
813.98	1069.86
814.30	1083.43
814.62	1084.84
814.94	1103.56
815.26	1104.97
815.58	1108.71
815.90	1097.95
816.22	1092.56
816.54	1089.52
816.86	1095.60
817.18	1091.86
817.50	1096.31
817.82	1099.82
818.14	1095.14
818.46	1089.52
818.78	1093.03
819.10	1092.80
819.42	1090.46
819.74	1096.78
820.06	1100.52
820.38	1105.67
820.70	1108.71
821.02	1099.12
821.34	1088.82
821.66	1088.58
821.98	1084.14
822.30	1073.60
822.62	1081.56
822.94	1089.52
823.26	1095.60
823.58	1089.05
823.90	1091.39
824.22	1081.09
824.54	1083.43
824.86	1075.71
825.18	1077.11
825.50	1082.97
825.81	1105.67
826.13	1090.92
826.45	1091.63
826.77	1090.92
827.09	1082.73
827.41	1066.58
827.73	1065.88
828.05	1062.84
828.36	1067.52
828.68	1065.41
829.00	1058.39
829.32	1066.82
829.64	1067.52
829.96	1068.92
830.28	1073.14
830.59	1078.52
830.91	1081.33
831.23	1086.48
831.55	1075.71
831.87	1084.14
832.19	1092.33
832.50	1081.33
832.82	1083.43
833.14	1075.48
833.46	1073.14
833.78	1066.11
834.09	1077.82
834.41	1068.92
834.73	1076.65
835.05	1071.26
835.36	1075.71
835.68	1073.84
836.00	1077.82
836.32	1088.12
836.63	1095.60
836.95	1096.54
837.27	1100.75
837.59	1102.16
837.90	1087.88
838.22	1083.90
838.54	1081.56
838.85	1082.73
839.17	1086.48
839.49	1094.20
839.80	1095.60
840.12	1100.52
840.44	1096.78
840.76	1093.73
841.07	1094.43
841.39	1093.03
841.71	1077.35
842.02	1076.88
842.34	1071.26
842.65	1065.65
842.97	1070.33
843.29	1082.73
843.60	1076.65
843.92	1080.16
844.24	1082.26
844.55	1078.52
844.87	1073.14
845.18	1078.05
845.50	1074.77
845.82	1082.97
846.13	1082.26
846.45	1084.37
846.76	1088.58
847.08	1091.39
847.40	1084.60
847.71	1078.99
848.03	1074.54
848.34	1076.88
848.66	1071.03
848.97	1069.62
849.29	1074.31
849.60	1073.60
849.92	1062.14
850.24	1082.73
850.55	1086.94
850.87	1087.65
851.18	1097.24
851.50	1112.92
851.81	1096.07
852.13	1090.22
852.44	1081.80
852.76	1082.73
853.07	1071.50
853.39	1064.24
853.70	1065.18
854.01	1073.14
854.33	1073.14
854.64	1074.54
854.96	1079.69
855.27	1080.39
855.59	1079.22
855.90	1070.80
856.22	1064.24
856.53	1076.18
856.84	1070.80
857.16	1066.58
857.47	1062.84
857.79	1069.86
858.10	1059.56
858.41	1070.80
858.73	1071.03
859.04	1078.52
859.36	1083.43
859.67	1088.58
859.98	1082.26
860.30	1090.46
860.61	1082.26
860.92	1067.52
861.24	1057.69
861.55	1064.94
861.87	1059.33
862.18	1069.16
862.49	1076.41
862.81	1076.88
863.12	1072.20
863.43	1073.60
863.74	1067.28
864.06	1076.88
864.37	1084.14
864.68	1086.71
865.00	1078.05
865.31	1074.54
865.62	1055.58
865.94	1052.54
866.25	1051.84
866.56	1054.65
866.87	1051.13
867.19	1056.75
867.50	1062.84
867.81	1057.22
868.12	1065.18
868.44	1065.88
868.75	1069.86
869.06	1061.67
869.37	1058.86
869.68	1057.69
870.00	1068.22
870.31	1061.90
870.62	1073.84
870.93	1080.39
871.24	1084.60
871.56	1086.94
871.87	1094.43
872.18	1088.82
872.49	1097.01
872.80	1093.03
873.12	1087.88
873.43	1095.37
873.74	1098.65
874.05	1089.75
874.36	1097.01
874.67	1111.99
874.98	1103.33
875.29	1100.52
875.61	1106.37
875.92	1093.03
876.23	1081.09
876.54	1094.90
876.85	1094.20
877.16	1095.84
877.47	1100.05
877.78	1104.50
878.09	1089.75
878.40	1090.22
878.72	1083.20
879.03	1078.75
879.34	1078.99
879.65	1077.35
879.96	1074.07
880.27	1066.11
880.58	1078.05
880.89	1076.65
881.20	1071.73
881.51	1072.43
881.82	1085.31
882.13	1077.58
882.44	1079.46
882.75	1087.65
883.06	1089.29
883.37	1083.90
883.68	1085.31
883.99	1080.86
884.30	1082.03
884.61	1079.69
884.92	1076.18
885.23	1071.26
885.54	1074.77
885.85	1070.09
886.16	1078.52
886.47	1073.14
886.78	1077.35
887.08	1075.71
887.39	1085.31
887.70	1080.16
888.01	1089.99
888.32	1087.65
888.63	1076.88
888.94	1073.60
889.25	1072.43
889.56	1069.62
889.87	1078.99
890.17	1091.39
890.48	1076.41
890.79	1073.60
891.10	1076.65
891.41	1061.20
891.72	1053.24
892.03	1067.28
892.34	1069.62
892.64	1068.45
892.95	1074.31
893.26	1079.22
893.57	1075.01
893.88	1071.97
894.18	1071.50
894.49	1072.43
894.80	1070.80
895.11	1077.82
895.42	1079.92
895.72	1081.56
896.03	1086.01
896.34	1090.46
896.65	1093.26
896.96	1091.86
897.26	1086.71
897.57	1090.22
897.88	1082.97
898.19	1073.37
898.49	1071.26
898.80	1073.37
899.11	1063.07
899.41	1063.77
899.72	1060.26
900.03	1064.01
900.34	1062.84
900.64	1065.65
900.95	1069.62
901.26	1075.48
901.56	1076.65
901.87	1082.03
902.18	1082.03
902.48	1082.97
902.79	1082.26
903.10	1075.71
903.40	1069.62
903.71	1062.84
904.02	1051.37
904.32	1051.84
904.63	1063.07
904.94	1062.84
905.24	1071.26
905.55	1083.20
905.85	1084.60
906.16	1078.75
906.47	1089.52
906.77	1093.03
907.08	1092.09
907.38	1086.48
907.69	1089.29
908.00	1078.52
908.30	1075.94
908.61	1074.54
908.91	1079.92
909.22	1078.28
909.52	1083.90
909.83	1077.58
910.14	1080.63
910.44	1079.69
910.75	1078.28
911.05	1076.88
911.36	1092.33
911.66	1097.01
911.97	1088.35
912.27	1089.05
912.58	1078.28
912.88	1066.11
913.19	1049.26
913.49	1059.79
913.80	1062.84
914.10	1070.33
914.41	1078.75
914.71	1086.71
915.01	1082.26
915.32	1078.28
915.62	1083.90
915.93	1081.09
916.23	1072.20
916.54	1072.67
916.84	1085.07
917.15	1092.33
917.45	1085.07
917.75	1087.65
918.06	1083.67
918.36	1068.45
918.67	1066.58
918.97	1070.56
919.27	1083.90
919.58	1084.84
919.88	1087.41
920.18	1091.63
920.49	1094.90
920.79	1093.97
921.10	1088.58
921.40	1093.03
921.70	1076.88
922.01	1071.97
922.31	1061.67
922.61	1061.43
922.92	1061.67
923.22	1067.75
923.52	1068.69
923.82	1072.67
924.13	1083.43
924.43	1068.69
924.73	1063.54
925.04	1065.88
925.34	1071.97
925.64	1069.62
925.94	1086.71
926.25	1087.88
926.55	1086.48
926.85	1074.31
927.15	1071.03
927.46	1066.11
927.76	1065.65
928.06	1074.07
928.36	1082.26
928.67	1085.77
928.97	1087.41
929.27	1089.05
929.57	1075.71
929.87	1078.05
930.18	1075.71
930.48	1074.77
930.78	1076.65
931.08	1068.45
931.38	1064.24
931.69	1062.14
931.99	1060.73
932.29	1071.26
932.59	1085.31
932.89	1086.48
933.19	1102.86
933.49	1103.09
933.80	1087.65
934.10	1080.39
934.40	1088.58
934.70	1076.88
935.00	1078.05
935.30	1084.60
935.60	1082.73
935.90	1074.31
936.20	1077.82
936.50	1077.35
936.81	1073.84
937.11	1082.73
937.41	1077.11
937.71	1077.35
938.01	1082.03
938.31	1084.84
938.61	1085.77
938.91	1092.09
939.21	1091.16
939.51	1079.92
939.81	1071.73
940.11	1069.39
940.41	1060.50
940.71	1062.84
941.01	1064.01
941.31	1062.37
941.61	1062.37
941.91	1070.80
942.21	1063.31
942.51	1070.33
942.81	1082.26
943.11	1082.97
943.41	1080.86
943.71	1086.48
944.01	1081.56
944.31	1083.90
944.61	1077.82
944.90	1083.20
945.20	1083.67
945.50	1084.37
945.80	1083.43
946.10	1094.43
946.40	1086.94
946.70	1086.24
947.00	1088.35
947.30	1081.80
947.60	1076.65
947.89	1081.56
948.19	1083.43
948.49	1087.65
948.79	1080.39
949.09	1074.31
949.39	1063.07
949.69	1051.84
949.98	1054.18
950.28	1064.01
950.58	1066.35
950.88	1079.69
951.18	1088.58
951.48	1075.71
951.77	1073.84
952.07	1071.03
952.37	1063.77
952.67	1064.01
952.97	1064.01
953.26	1061.90
953.56	1067.05
953.86	1074.07
954.16	1064.94
954.45	1077.35
954.75	1076.88
955.05	1081.80
955.35	1088.58
955.64	1099.82
955.94	1093.26
956.24	1097.48
956.54	1095.60
956.83	1095.84
957.13	1089.29
957.43	1093.50
957.72	1090.46
958.02	1091.86
958.32	1090.92
958.61	1093.73
958.91	1095.60
959.21	1108.01
959.50	1098.88
959.80	1088.12
960.10	1085.07
960.39	1078.75
960.69	1059.09
960.99	1063.77
961.28	1060.03
961.58	1059.33
961.87	1070.56
962.17	1084.14
962.47	1084.37
962.76	1082.03
963.06	1082.73
963.36	1069.62
963.65	1064.94
963.95	1067.52
964.24	1072.43
964.54	1073.60
964.83	1076.18
965.13	1067.28
965.42	1066.58
965.72	1075.48
966.02	1083.43
966.31	1085.07
966.61	1094.20
966.90	1094.67
967.20	1087.18
967.49	1074.31
967.79	1075.24
968.08	1079.69
968.38	1074.77
968.67	1072.67
968.97	1077.82
969.26	1067.75
969.56	1061.90
969.85	1062.84
970.15	1063.31
970.44	1067.52
970.74	1075.71
971.03	1079.69
971.32	1078.05
971.62	1076.65
971.91	1070.09
972.21	1077.11
972.50	1088.35
972.80	1098.18
973.09	1102.39
973.38	1107.31
973.68	1106.37
973.97	1093.73
974.27	1083.90
974.56	1079.69
974.85	1077.35
975.15	1077.58
975.44	1071.50
975.73	1078.99
976.03	1072.67
976.32	1066.35
976.61	1058.86
976.91	1076.18
977.20	1070.33
977.49	1083.90
977.79	1093.50
978.08	1096.54
978.37	1078.52
978.67	1075.48
978.96	1075.94
979.25	1065.65
979.55	1055.11
979.84	1060.73
980.13	1061.43
980.42	1055.82
980.72	1068.22
981.01	1090.46
981.30	1095.60
981.59	1100.52
981.89	1105.20
982.18	1095.14
982.47	1074.07
982.76	1066.82
983.06	1066.35
983.35	1056.99
983.64	1064.71
983.93	1063.07
984.22	1068.92
984.52	1067.28
984.81	1074.54
985.10	1070.33
985.39	1071.50
985.68	1066.11
985.97	1071.26
986.27	1071.03
986.56	1069.16
986.85	1071.26
987.14	1068.22
987.43	1063.77
987.72	1065.88
988.01	1070.80
988.31	1075.48
988.60	1083.90
988.89	1082.97
989.18	1081.80
989.47	1081.09
989.76	1083.67
990.05	1079.46
990.34	1083.90
990.63	1085.77
990.92	1088.58
991.21	1087.18
991.51	1087.41
991.80	1084.60
992.09	1085.31
992.38	1077.58
992.67	1072.43
992.96	1078.99
993.25	1081.56
993.54	1083.43
993.83	1084.60
994.12	1084.84
994.41	1083.43
994.70	1087.41
994.99	1081.09
995.28	1086.24
995.57	1086.24
995.86	1084.14
996.15	1083.90
996.44	1089.05
996.73	1089.99
997.02	1095.84
997.31	1090.92
997.59	1079.69
997.88	1070.33
998.17	1066.58
998.46	1071.03
998.75	1071.73
999.04	1080.39
999.33	1089.52
999.62	1094.43
999.91	1093.50
1000.20	1101.69
1000.49	1093.73
1000.77	1094.43
1001.06	1091.16
1001.35	1087.88
1001.64	1081.33
1001.93	1085.07
1002.22	1070.80
1002.51	1069.39
1002.79	1067.05
1003.08	1066.35
1003.37	1058.62
1003.66	1067.05
1003.95	1069.39
1004.23	1065.65
1004.52	1061.67
1004.81	1072.67
1005.10	1071.03
1005.39	1066.82
1005.67	1066.82
1005.96	1074.77
1006.25	1078.28
1006.54	1080.63
1006.83	1077.58
1007.11	1075.48
1007.40	1077.82
1007.69	1067.75
1007.97	1063.31
1008.26	1071.50
1008.55	1071.03
1008.84	1066.11
1009.12	1064.48
1009.41	1060.03
1009.70	1057.69
1009.98	1056.99
1010.27	1047.16
1010.56	1052.77
1010.85	1058.39
1011.13	1056.99
1011.42	1061.20
1011.71	1067.28
1011.99	1060.50
1012.28	1058.39
1012.56	1054.65
1012.85	1057.69
1013.14	1060.50
1013.42	1067.28
1013.71	1074.31
1014.00	1072.67
1014.28	1071.50
1014.57	1075.48
1014.85	1073.37
1015.14	1066.82
1015.43	1067.52
1015.71	1074.07
1016.00	1076.41
1016.28	1081.09
1016.57	1096.54
1016.85	1090.92
1017.14	1079.22
1017.43	1068.69
1017.71	1068.22
1018.00	1056.99
1018.28	1065.88
1018.57	1071.97
1018.85	1073.37
1019.14	1069.16
1019.42	1073.84
1019.71	1069.86
1019.99	1072.20
1020.28	1075.48
1020.56	1072.43
1020.85	1071.97
1021.13	1075.01
1021.42	1070.80
1021.70	1065.88
1021.99	1070.80
1022.27	1070.56
1022.55	1075.48
1022.84	1094.20
>>>>>End Processed Spectral Data<<<<<
