SpectraSuite Data File
++++++++++++++++++++++++++++++++++++
Date: Mon Aug 26 10:24:49 PDT 2019
User: corrico
Dark Spectrum Present: No
Reference Spectrum Present: No
Number of Sampled Component Spectra: 1
Spectrometers: USB2+H06089
Integration Time (usec): 10000 (USB2+H06089)
Spectra Averaged: 2 (USB2+H06089)
Boxcar Smoothing: 2 (USB2+H06089)
Correct for Electrical Dark: No (USB2+H06089)
Strobe/Lamp Enabled: No (USB2+H06089)
Correct for Detector Non-linearity: No (USB2+H06089)
Correct for Stray Light: No (USB2+H06089)
Number of Pixels in Processed Spectrum: 2048
>>>>>Begin Processed Spectral Data<<<<<
339.70	1007.60
340.07	1007.60
340.45	984.90
340.82	974.37
341.19	963.60
341.57	943.94
341.94	940.19
342.31	927.79
342.69	914.21
343.06	905.32
343.43	901.81
343.81	893.62
344.18	894.32
344.55	902.74
344.93	906.49
345.30	912.11
345.67	918.43
346.04	915.85
346.42	922.87
346.79	921.23
347.16	943.24
347.54	953.77
347.91	968.05
348.28	982.32
348.65	1000.34
349.03	1001.52
349.40	1008.30
349.77	1025.15
350.14	1021.41
350.52	1034.75
350.89	1045.99
351.26	1053.94
351.63	1056.75
352.01	1072.67
352.38	1080.16
352.75	1087.88
353.12	1100.99
353.50	1099.58
353.87	1097.24
354.24	1095.14
354.61	1083.90
354.98	1090.69
355.36	1093.03
355.73	1097.71
356.10	1089.99
356.47	1093.97
356.84	1083.90
357.22	1090.22
357.59	1080.16
357.96	1079.69
358.33	1090.69
358.70	1081.33
359.08	1079.22
359.45	1089.99
359.82	1091.86
360.19	1079.92
360.56	1093.97
360.94	1096.07
361.31	1099.58
361.68	1106.84
362.05	1104.03
362.42	1100.05
362.79	1097.01
363.16	1081.09
363.54	1068.45
363.91	1071.26
364.28	1065.41
364.65	1069.86
365.02	1073.37
365.39	1075.24
365.76	1064.48
366.14	1061.67
366.51	1061.67
366.88	1069.39
367.25	1078.52
367.62	1098.88
367.99	1113.39
368.36	1106.61
368.73	1104.73
369.10	1099.35
369.48	1092.09
369.85	1081.56
370.22	1082.03
370.59	1082.73
370.96	1081.80
371.33	1077.35
371.70	1082.26
372.07	1090.92
372.44	1093.50
372.81	1099.12
373.18	1097.24
373.55	1094.43
373.93	1087.88
374.30	1082.03
374.67	1073.37
375.04	1078.52
375.41	1069.62
375.78	1078.75
376.15	1080.39
376.52	1087.18
376.89	1084.14
377.26	1097.01
377.63	1082.03
378.00	1077.11
378.37	1075.94
378.74	1082.03
379.11	1079.46
379.48	1088.82
379.85	1098.88
380.22	1098.88
380.59	1095.60
380.96	1096.78
381.33	1092.33
381.70	1085.31
382.07	1084.37
382.44	1080.63
382.81	1082.97
383.18	1090.22
383.55	1097.95
383.92	1104.97
384.29	1124.39
384.66	1132.35
385.03	1134.22
385.40	1127.20
385.77	1132.59
386.14	1120.65
386.51	1114.33
386.88	1108.71
387.25	1118.78
387.62	1109.18
387.99	1106.61
388.36	1092.80
388.73	1086.24
389.10	1074.31
389.46	1074.77
389.83	1072.43
390.20	1088.58
390.57	1093.50
390.94	1096.07
391.31	1098.65
391.68	1107.07
392.05	1102.63
392.42	1108.71
392.79	1119.24
393.16	1121.82
393.53	1107.07
393.89	1110.58
394.26	1108.01
394.63	1097.95
395.00	1089.99
395.37	1113.16
395.74	1120.18
396.11	1124.63
396.48	1133.76
396.84	1151.31
397.21	1139.14
397.58	1132.12
397.95	1127.67
398.32	1125.56
398.69	1118.07
399.06	1117.37
399.42	1127.20
399.79	1141.01
400.16	1148.97
400.53	1155.99
400.90	1169.33
401.27	1169.80
401.64	1166.29
402.00	1166.05
402.37	1162.31
402.74	1164.65
403.11	1168.63
403.48	1168.63
403.84	1174.71
404.21	1188.76
404.58	1191.57
404.95	1195.08
405.32	1218.01
405.68	1228.78
406.05	1247.04
406.42	1259.68
406.79	1275.83
407.16	1278.87
407.52	1289.87
407.89	1299.00
408.26	1321.00
408.63	1337.62
408.99	1359.62
409.36	1388.41
409.73	1412.28
410.10	1445.05
410.47	1482.03
410.83	1511.99
411.20	1536.56
411.57	1571.67
411.94	1599.76
412.30	1629.95
412.67	1691.51
413.04	1745.10
413.40	1806.19
413.77	1876.88
414.14	1932.58
414.51	1991.80
414.87	2059.91
415.24	2115.61
415.61	2183.49
415.97	2264.47
416.34	2342.64
416.71	2435.56
417.08	2537.37
417.44	2629.36
417.81	2754.11
418.18	2873.24
418.54	3004.31
418.91	3151.30
419.28	3304.84
419.64	3461.65
420.01	3628.06
420.38	3803.37
420.74	3997.17
421.11	4207.11
421.48	4408.87
421.84	4626.54
422.21	4834.61
422.58	5054.62
422.94	5282.36
423.31	5532.79
423.68	5809.68
424.04	6103.41
424.41	6395.75
424.77	6682.23
425.14	6979.95
425.51	7311.83
425.87	7678.36
426.24	8008.14
426.61	8452.14
426.97	8942.95
427.34	9367.53
427.70	9867.93
428.07	10410.70
428.44	10907.13
428.80	11423.22
429.17	11989.63
429.53	12528.19
429.90	13137.19
430.27	13679.03
430.63	14247.31
431.00	14922.09
431.36	15649.06
431.73	16245.19
432.09	16921.61
432.46	17633.36
432.83	18229.73
433.19	18746.29
433.56	19454.30
433.92	20165.59
434.29	20769.45
434.65	21457.56
435.02	22132.81
435.38	22770.37
435.75	23284.82
436.11	23885.40
436.48	24338.53
436.84	24853.91
437.21	25336.53
437.57	25828.28
437.94	26237.17
438.30	26665.26
438.67	26903.52
439.03	27050.51
439.40	27166.60
439.76	27079.06
440.13	26977.01
440.49	26935.82
440.86	26687.96
441.22	26447.82
441.59	26162.51
441.95	25816.34
442.32	25307.74
442.68	24902.13
443.05	24372.93
443.41	23875.57
443.78	23239.41
444.14	22705.30
444.51	22097.47
444.87	21628.89
445.24	21150.49
445.60	20822.81
445.96	20272.32
446.33	19830.66
446.69	19239.44
447.06	18712.11
447.42	18118.79
447.79	17635.47
448.15	17194.28
448.51	16743.02
448.88	16327.34
449.24	15840.28
449.61	15501.37
449.97	15076.33
450.33	14700.90
450.70	14254.80
451.06	13921.04
451.43	13467.21
451.79	13096.23
452.15	12769.49
452.52	12465.69
452.88	12178.51
453.24	11923.86
453.61	11637.61
453.97	11366.58
454.34	11069.10
454.70	10794.55
455.06	10586.95
455.43	10268.16
455.79	9918.96
456.15	9631.77
456.52	9324.23
456.88	9004.04
457.24	8748.69
457.61	8531.49
457.97	8286.90
458.33	8048.63
458.70	7776.66
459.06	7497.67
459.42	7250.28
459.79	7010.37
460.15	6753.15
460.51	6518.86
460.88	6331.62
461.24	6137.12
461.60	5977.26
461.96	5795.87
462.33	5665.03
462.69	5525.77
463.05	5368.02
463.42	5200.67
463.78	5072.17
464.14	4924.25
464.50	4791.78
464.87	4666.09
465.23	4572.24
465.59	4468.55
465.95	4354.57
466.32	4266.80
466.68	4169.66
467.04	4066.45
467.40	3996.46
467.77	3939.12
468.13	3867.50
468.49	3785.35
468.85	3722.15
469.22	3652.41
469.58	3574.00
469.94	3504.25
470.30	3446.91
470.66	3382.54
471.03	3302.26
471.39	3239.54
471.75	3176.11
472.11	3122.98
472.47	3067.51
472.84	3021.63
473.20	2984.18
473.56	2929.65
473.92	2877.69
474.28	2820.35
474.65	2777.75
475.01	2726.02
475.37	2676.17
475.73	2639.19
476.09	2609.00
476.45	2570.14
476.81	2519.59
477.18	2480.03
477.54	2436.73
477.90	2408.41
478.26	2365.11
478.62	2329.77
478.98	2310.81
479.34	2282.49
479.71	2240.83
480.07	2206.42
480.43	2184.42
480.79	2144.40
481.15	2118.18
481.51	2095.72
481.87	2082.37
482.23	2050.08
482.59	2028.78
482.96	2012.16
483.32	1988.29
483.68	1967.45
484.04	1953.41
484.40	1933.05
484.76	1911.52
485.12	1900.05
485.48	1882.96
485.84	1867.05
486.20	1858.62
486.56	1845.75
486.92	1813.92
487.28	1797.53
487.64	1782.79
488.00	1760.32
488.37	1729.66
488.73	1720.29
489.09	1690.80
489.45	1676.76
489.81	1642.82
490.17	1627.14
490.53	1602.10
490.89	1601.16
491.25	1575.88
491.61	1569.33
491.97	1559.26
492.33	1565.58
492.69	1541.01
493.05	1536.33
493.41	1529.54
493.77	1521.58
494.13	1508.01
494.49	1506.37
494.85	1496.77
495.21	1493.26
495.57	1486.24
495.93	1468.92
496.29	1456.28
496.64	1432.88
497.00	1416.96
497.36	1402.21
497.72	1387.70
498.08	1377.17
498.44	1386.30
498.80	1379.98
499.16	1383.96
499.52	1383.26
499.88	1378.58
500.24	1363.13
500.60	1353.30
500.96	1324.74
501.32	1317.02
501.68	1310.00
502.03	1298.06
502.39	1288.23
502.75	1294.55
503.11	1290.34
503.47	1280.51
503.83	1275.83
504.19	1273.72
504.55	1272.55
504.91	1264.83
505.26	1263.19
505.62	1262.02
505.98	1262.02
506.34	1257.10
506.70	1253.36
507.06	1248.21
507.42	1243.99
507.78	1240.48
508.13	1228.31
508.49	1222.23
508.85	1214.50
509.21	1212.87
509.57	1196.72
509.93	1199.52
510.28	1196.72
510.64	1198.82
511.00	1203.50
511.36	1213.33
511.72	1207.25
512.07	1205.84
512.43	1210.29
512.79	1186.18
513.15	1175.89
513.51	1177.99
513.86	1171.20
514.22	1163.71
514.58	1179.16
514.94	1186.42
515.30	1181.03
515.65	1179.40
516.01	1176.35
516.37	1164.18
516.73	1147.56
517.08	1139.61
517.44	1143.12
517.80	1134.69
518.16	1143.12
518.51	1156.93
518.87	1148.73
519.23	1142.88
519.59	1150.61
519.94	1142.88
520.30	1138.90
520.66	1148.03
521.01	1143.35
521.37	1142.42
521.73	1143.12
522.09	1136.10
522.44	1134.22
522.80	1156.93
523.16	1158.10
523.51	1152.01
523.87	1165.59
524.23	1168.40
524.58	1153.18
524.94	1142.88
525.30	1151.31
525.65	1129.31
526.01	1138.67
526.37	1136.33
526.72	1137.27
527.08	1130.24
527.44	1133.76
527.79	1122.05
528.15	1112.92
528.51	1118.78
528.86	1118.78
529.22	1124.63
529.58	1124.86
529.93	1129.31
530.29	1123.22
530.65	1118.54
531.00	1109.18
531.36	1106.84
531.71	1113.39
532.07	1112.22
532.43	1112.46
532.78	1111.05
533.14	1112.69
533.49	1108.71
533.85	1113.16
534.21	1119.01
534.56	1124.39
534.92	1118.78
535.27	1125.80
535.63	1123.22
535.98	1124.86
536.34	1126.03
536.69	1121.35
537.05	1111.99
537.41	1104.73
537.76	1102.63
538.12	1094.90
538.47	1100.05
538.83	1101.92
539.18	1103.80
539.54	1097.71
539.89	1115.03
540.25	1126.73
540.60	1127.67
540.96	1131.18
541.31	1135.86
541.67	1128.14
542.02	1121.58
542.38	1116.67
542.73	1120.88
543.09	1116.67
543.44	1107.78
543.80	1105.67
544.15	1104.73
544.51	1095.14
544.86	1108.48
545.22	1111.52
545.57	1110.58
545.93	1115.03
546.28	1114.80
546.64	1101.46
546.99	1101.92
547.35	1096.07
547.70	1094.43
548.05	1098.41
548.41	1098.41
548.76	1099.58
549.12	1092.56
549.47	1088.35
549.83	1082.26
550.18	1086.48
550.53	1085.07
550.89	1090.22
551.24	1093.73
551.60	1092.33
551.95	1087.88
552.30	1096.07
552.66	1101.46
553.01	1105.44
553.37	1110.82
553.72	1114.10
554.07	1108.48
554.43	1111.52
554.78	1112.46
555.13	1114.56
555.49	1122.75
555.84	1120.65
556.19	1116.20
556.55	1111.29
556.90	1106.84
557.26	1094.67
557.61	1090.92
557.96	1089.99
558.32	1090.46
558.67	1091.63
559.02	1092.56
559.37	1100.99
559.73	1103.56
560.08	1106.37
560.43	1101.69
560.79	1095.37
561.14	1086.71
561.49	1097.95
561.85	1096.31
562.20	1098.88
562.55	1101.46
562.90	1104.73
563.26	1094.43
563.61	1093.03
563.96	1095.60
564.32	1108.24
564.67	1101.46
565.02	1102.86
565.37	1100.52
565.73	1097.95
566.08	1086.24
566.43	1083.67
566.78	1080.16
567.14	1078.75
567.49	1082.97
567.84	1091.63
568.19	1101.46
568.54	1103.33
568.90	1099.12
569.25	1099.35
569.60	1090.69
569.95	1089.29
570.31	1087.41
570.66	1087.41
571.01	1093.26
571.36	1094.43
571.71	1095.14
572.06	1098.88
572.42	1102.16
572.77	1090.46
573.12	1092.33
573.47	1091.63
573.82	1097.71
574.18	1101.22
574.53	1104.03
574.88	1105.20
575.23	1117.14
575.58	1113.63
575.93	1122.05
576.28	1129.54
576.64	1128.37
576.99	1118.07
577.34	1112.69
577.69	1110.82
578.04	1107.31
578.39	1107.54
578.74	1114.80
579.09	1120.41
579.44	1113.39
579.80	1114.56
580.15	1126.50
580.50	1116.90
580.85	1100.05
581.20	1103.56
581.55	1100.52
581.90	1077.11
582.25	1072.67
582.60	1078.28
582.95	1074.77
583.30	1071.73
583.65	1076.88
584.00	1073.60
584.35	1084.84
584.71	1078.05
585.06	1067.99
585.41	1074.31
585.76	1075.24
586.11	1060.26
586.46	1067.28
586.81	1084.84
587.16	1080.86
587.51	1088.58
587.86	1098.65
588.21	1097.48
588.56	1094.43
588.91	1098.65
589.26	1100.99
589.61	1105.67
589.96	1102.39
590.31	1104.73
590.66	1104.26
591.01	1101.69
591.36	1098.88
591.71	1106.37
592.06	1097.01
592.41	1095.37
592.76	1090.92
593.10	1089.99
593.45	1085.77
593.80	1088.12
594.15	1092.56
594.50	1089.75
594.85	1090.92
595.20	1101.22
595.55	1104.26
595.90	1106.14
596.25	1108.71
596.60	1101.69
596.95	1081.56
597.30	1069.16
597.64	1106.37
597.99	1114.33
598.34	1121.12
598.69	1131.88
599.04	1139.14
599.39	1097.01
599.74	1102.86
600.09	1103.33
600.44	1099.58
600.78	1104.03
601.13	1109.41
601.48	1107.78
601.83	1103.56
602.18	1106.14
602.53	1111.52
602.88	1099.35
603.22	1088.35
603.57	1089.29
603.92	1089.99
604.27	1081.09
604.62	1091.16
604.97	1095.60
605.31	1098.65
605.66	1100.29
606.01	1105.67
606.36	1104.97
606.71	1095.14
607.05	1089.29
607.40	1079.22
607.75	1081.33
608.10	1076.41
608.44	1090.46
608.79	1087.18
609.14	1096.54
609.49	1097.01
609.84	1094.67
610.18	1093.73
610.53	1103.80
610.88	1101.92
611.23	1099.58
611.57	1110.35
611.92	1107.07
612.27	1098.41
612.62	1101.46
612.96	1099.82
613.31	1091.86
613.66	1089.52
614.00	1089.75
614.35	1074.54
614.70	1073.60
615.05	1071.26
615.39	1072.20
615.74	1070.09
616.09	1084.14
616.43	1089.05
616.78	1088.58
617.13	1094.67
617.47	1110.58
617.82	1107.78
618.17	1100.05
618.51	1105.67
618.86	1105.67
619.21	1090.69
619.55	1087.18
619.90	1088.35
620.25	1088.12
620.59	1074.31
620.94	1070.80
621.29	1077.35
621.63	1085.54
621.98	1090.22
622.32	1093.50
622.67	1098.18
623.02	1094.67
623.36	1077.82
623.71	1074.77
624.05	1079.92
624.40	1080.86
624.75	1077.11
625.09	1085.77
625.44	1075.94
625.78	1072.43
626.13	1073.60
626.48	1077.58
626.82	1080.63
627.17	1082.73
627.51	1072.43
627.86	1076.88
628.20	1075.94
628.55	1063.31
628.89	1060.96
629.24	1076.41
629.58	1083.43
629.93	1093.03
630.28	1105.20
630.62	1110.12
630.97	1106.61
631.31	1102.16
631.66	1088.12
632.00	1081.80
632.35	1079.69
632.69	1076.88
633.04	1070.09
633.38	1087.41
633.73	1101.46
634.07	1100.99
634.42	1100.99
634.76	1097.71
635.11	1095.14
635.45	1093.73
635.79	1099.58
636.14	1106.37
636.48	1117.37
636.83	1115.73
637.17	1108.48
637.52	1105.20
637.86	1103.33
638.21	1101.46
638.55	1103.33
638.89	1099.12
639.24	1096.54
639.58	1096.31
639.93	1097.71
640.27	1089.52
640.61	1098.18
640.96	1097.48
641.30	1095.37
641.65	1093.26
641.99	1100.29
642.33	1087.41
642.68	1095.84
643.02	1100.99
643.37	1108.48
643.71	1104.03
644.05	1112.69
644.40	1111.52
644.74	1106.37
645.08	1098.18
645.43	1093.97
645.77	1092.09
646.11	1089.99
646.46	1092.33
646.80	1099.58
647.14	1090.46
647.49	1092.33
647.83	1092.09
648.17	1092.56
648.52	1075.71
648.86	1088.82
649.20	1092.33
649.55	1089.52
649.89	1090.46
650.23	1099.12
650.57	1092.09
650.92	1077.82
651.26	1086.01
651.60	1076.41
651.95	1067.28
652.29	1076.18
652.63	1089.52
652.97	1080.86
653.32	1083.20
653.66	1089.75
654.00	1082.73
654.34	1082.97
654.69	1092.56
655.03	1094.90
655.37	1092.56
655.71	1100.99
656.05	1092.33
656.40	1087.88
656.74	1098.88
657.08	1101.92
657.42	1093.50
657.76	1090.22
658.11	1089.75
658.45	1082.03
658.79	1075.48
659.13	1076.18
659.47	1081.33
659.82	1075.24
660.16	1066.82
660.50	1076.41
660.84	1070.80
661.18	1070.09
661.52	1076.41
661.87	1084.14
662.21	1077.35
662.55	1084.37
662.89	1093.73
663.23	1086.01
663.57	1084.84
663.91	1083.67
664.25	1079.22
664.60	1079.69
664.94	1091.39
665.28	1091.86
665.62	1094.20
665.96	1104.97
666.30	1097.01
666.64	1084.84
666.98	1084.37
667.32	1085.31
667.66	1078.28
668.01	1084.14
668.35	1093.50
668.69	1102.16
669.03	1101.22
669.37	1104.03
669.71	1104.03
670.05	1097.71
670.39	1086.01
670.73	1076.65
671.07	1071.73
671.41	1074.54
671.75	1080.86
672.09	1084.37
672.43	1093.73
672.77	1090.46
673.11	1086.94
673.45	1084.84
673.79	1086.24
674.13	1080.86
674.47	1084.14
674.81	1075.71
675.15	1073.14
675.49	1075.94
675.83	1085.54
676.17	1089.29
676.51	1094.67
676.85	1096.31
677.19	1082.73
677.53	1075.94
677.87	1079.92
678.21	1077.58
678.55	1076.41
678.89	1084.84
679.23	1089.29
679.57	1089.52
679.90	1094.90
680.24	1082.50
680.58	1077.11
680.92	1074.31
681.26	1068.22
681.60	1069.62
681.94	1092.09
682.28	1097.24
682.62	1098.41
682.96	1102.86
683.29	1095.60
683.63	1092.33
683.97	1094.67
684.31	1093.50
684.65	1082.73
684.99	1082.26
685.33	1076.65
685.67	1081.56
686.00	1083.20
686.34	1090.46
686.68	1096.07
687.02	1093.26
687.36	1087.88
687.70	1076.65
688.03	1075.01
688.37	1070.80
688.71	1082.50
689.05	1081.33
689.39	1091.39
689.72	1093.26
690.06	1089.75
690.40	1072.20
690.74	1076.65
691.08	1078.75
691.41	1078.99
691.75	1078.52
692.09	1095.60
692.43	1090.46
692.76	1085.54
693.10	1089.75
693.44	1097.95
693.78	1082.26
694.11	1079.69
694.45	1093.03
694.79	1087.88
695.13	1081.09
695.46	1098.41
695.80	1105.90
696.14	1094.90
696.48	1092.56
696.81	1103.09
697.15	1092.56
697.49	1083.67
697.82	1074.54
698.16	1070.09
698.50	1069.62
698.83	1062.37
699.17	1058.86
699.51	1070.56
699.84	1077.82
700.18	1071.73
700.52	1080.86
700.85	1089.99
701.19	1096.31
701.53	1101.46
701.86	1104.03
702.20	1113.39
702.54	1113.16
702.87	1105.67
703.21	1101.69
703.55	1106.61
703.88	1090.69
704.22	1089.29
704.55	1087.88
704.89	1077.11
705.23	1068.69
705.56	1075.01
705.90	1072.20
706.23	1071.03
706.57	1086.24
706.91	1082.03
707.24	1079.92
707.58	1080.63
707.91	1090.22
708.25	1077.58
708.58	1076.65
708.92	1068.22
709.26	1075.24
709.59	1070.80
709.93	1072.90
710.26	1075.01
710.60	1085.77
710.93	1087.18
711.27	1084.60
711.60	1087.65
711.94	1086.48
712.27	1090.22
712.61	1080.63
712.94	1086.48
713.28	1083.67
713.61	1089.99
713.95	1082.26
714.28	1078.05
714.62	1074.31
714.95	1081.09
715.29	1075.48
715.62	1078.75
715.96	1090.69
716.29	1088.35
716.63	1083.90
716.96	1091.16
717.29	1089.29
717.63	1082.73
717.96	1080.86
718.30	1084.37
718.63	1075.48
718.97	1082.97
719.30	1087.41
719.63	1094.43
719.97	1083.20
720.30	1093.50
720.64	1085.07
720.97	1087.65
721.30	1080.63
721.64	1086.71
721.97	1078.28
722.31	1079.46
722.64	1076.88
722.97	1076.18
723.31	1085.77
723.64	1092.09
723.97	1088.82
724.31	1095.14
724.64	1100.75
724.98	1091.16
725.31	1091.86
725.64	1096.54
725.98	1080.16
726.31	1076.18
726.64	1079.92
726.97	1078.52
727.31	1072.67
727.64	1076.88
727.97	1074.54
728.31	1073.37
728.64	1065.41
728.97	1069.39
729.31	1078.75
729.64	1079.92
729.97	1083.43
730.30	1088.82
730.64	1089.75
730.97	1077.35
731.30	1084.37
731.63	1082.97
731.97	1077.82
732.30	1075.48
732.63	1078.99
732.96	1065.88
733.30	1058.62
733.63	1059.79
733.96	1059.09
734.29	1055.82
734.63	1060.50
734.96	1065.18
735.29	1060.26
735.62	1067.05
735.95	1073.14
736.29	1073.37
736.62	1069.16
736.95	1072.43
737.28	1061.90
737.61	1063.31
737.94	1063.77
738.28	1065.65
738.61	1060.26
738.94	1056.52
739.27	1060.50
739.60	1061.90
739.93	1065.88
740.27	1075.24
740.60	1075.48
740.93	1071.97
741.26	1072.90
741.59	1073.84
741.92	1070.09
742.25	1079.22
742.58	1068.22
742.91	1065.18
743.25	1064.48
743.58	1059.09
743.91	1061.67
744.24	1071.73
744.57	1074.07
744.90	1074.07
745.23	1086.24
745.56	1086.24
745.89	1090.46
746.22	1101.22
746.55	1106.61
746.88	1100.29
747.21	1097.95
747.54	1088.82
747.87	1075.71
748.20	1062.84
748.53	1064.01
748.87	1060.50
749.20	1064.94
749.53	1059.56
749.86	1067.05
750.19	1076.41
750.52	1079.92
750.85	1074.31
751.18	1078.52
751.51	1080.39
751.84	1069.86
752.16	1063.54
752.49	1067.05
752.82	1066.35
753.15	1062.84
753.48	1059.33
753.81	1059.79
754.14	1062.37
754.47	1068.92
754.80	1074.31
755.13	1082.50
755.46	1087.18
755.79	1079.22
756.12	1081.56
756.45	1074.07
756.78	1077.82
757.11	1074.31
757.43	1077.82
757.76	1082.26
758.09	1079.22
758.42	1077.82
758.75	1077.58
759.08	1091.86
759.41	1083.43
759.74	1086.01
760.07	1077.35
760.39	1078.28
760.72	1068.92
761.05	1071.97
761.38	1076.18
761.71	1082.03
762.04	1089.99
762.36	1093.73
762.69	1089.29
763.02	1086.94
763.35	1089.52
763.68	1082.97
764.01	1078.75
764.33	1079.46
764.66	1079.92
764.99	1073.37
765.32	1078.05
765.65	1078.05
765.97	1077.82
766.30	1073.37
766.63	1074.54
766.96	1072.20
767.28	1075.48
767.61	1076.65
767.94	1084.14
768.27	1082.97
768.59	1077.11
768.92	1075.94
769.25	1081.56
769.58	1081.09
769.90	1087.88
770.23	1086.94
770.56	1092.80
770.89	1091.63
771.21	1089.05
771.54	1086.01
771.87	1104.26
772.19	1090.22
772.52	1083.67
772.85	1079.22
773.17	1076.18
773.50	1051.37
773.83	1056.52
774.15	1057.45
774.48	1068.45
774.81	1080.63
775.13	1103.33
775.46	1105.90
775.79	1108.24
776.11	1096.07
776.44	1087.65
776.77	1084.14
777.09	1082.03
777.42	1087.41
777.74	1087.88
778.07	1087.88
778.40	1075.24
778.72	1075.48
779.05	1067.28
779.37	1075.94
779.70	1084.60
780.03	1087.18
780.35	1090.69
780.68	1084.84
781.00	1081.09
781.33	1067.28
781.65	1067.52
781.98	1070.09
782.31	1077.35
782.63	1079.69
782.96	1078.52
783.28	1079.69
783.61	1075.01
783.93	1077.11
784.26	1080.63
784.58	1092.80
784.91	1096.07
785.23	1091.63
785.56	1093.73
785.88	1087.41
786.21	1079.69
786.53	1075.48
786.86	1078.52
787.18	1080.86
787.51	1085.07
787.83	1088.58
788.16	1088.82
788.48	1084.84
788.81	1074.31
789.13	1069.16
789.46	1068.69
789.78	1067.05
790.10	1072.90
790.43	1070.80
790.75	1071.50
791.08	1077.82
791.40	1080.39
791.73	1082.26
792.05	1088.58
792.37	1085.54
792.70	1085.77
793.02	1089.05
793.35	1082.73
793.67	1075.24
793.99	1075.24
794.32	1059.09
794.64	1060.26
794.96	1060.03
795.29	1059.79
795.61	1066.11
795.93	1076.88
796.26	1073.37
796.58	1074.07
796.91	1072.67
797.23	1074.77
797.55	1066.58
797.87	1059.79
798.20	1055.82
798.52	1057.22
798.84	1056.75
799.17	1056.52
799.49	1057.22
799.81	1063.31
800.14	1069.62
800.46	1075.94
800.78	1086.01
801.10	1080.86
801.43	1080.39
801.75	1076.18
802.07	1064.24
802.40	1052.77
802.72	1068.69
803.04	1069.39
803.36	1074.07
803.69	1082.50
804.01	1094.90
804.33	1094.43
804.65	1105.44
804.97	1113.86
805.30	1108.71
805.62	1097.24
805.94	1098.88
806.26	1088.12
806.58	1080.16
806.91	1081.09
807.23	1084.14
807.55	1085.31
807.87	1091.86
808.19	1088.12
808.52	1078.52
808.84	1085.54
809.16	1078.75
809.48	1065.18
809.80	1069.86
810.12	1071.26
810.44	1071.03
810.77	1076.41
811.09	1082.97
811.41	1080.39
811.73	1095.60
812.05	1096.31
812.37	1091.39
812.69	1093.03
813.01	1094.67
813.33	1090.92
813.66	1093.50
813.98	1084.14
814.30	1085.54
814.62	1090.69
814.94	1080.16
815.26	1077.11
815.58	1078.52
815.90	1069.16
816.22	1061.43
816.54	1082.03
816.86	1088.58
817.18	1101.46
817.50	1106.37
817.82	1111.99
818.14	1092.56
818.46	1074.54
818.78	1068.92
819.10	1064.94
819.42	1054.41
819.74	1061.20
820.06	1069.39
820.38	1073.60
820.70	1079.69
821.02	1091.16
821.34	1081.56
821.66	1078.99
821.98	1073.60
822.30	1072.67
822.62	1065.41
822.94	1086.01
823.26	1080.63
823.58	1082.97
823.90	1086.24
824.22	1090.69
824.54	1074.77
824.86	1080.16
825.18	1081.33
825.50	1080.16
825.81	1076.65
826.13	1083.43
826.45	1083.43
826.77	1085.31
827.09	1079.69
827.41	1081.56
827.73	1081.33
828.05	1081.56
828.36	1079.22
828.68	1088.58
829.00	1086.71
829.32	1081.09
829.64	1083.90
829.96	1088.35
830.28	1087.88
830.59	1091.86
830.91	1097.71
831.23	1089.05
831.55	1082.50
831.87	1080.86
832.19	1079.69
832.50	1076.88
832.82	1095.14
833.14	1095.84
833.46	1090.92
833.78	1100.75
834.09	1100.52
834.41	1091.86
834.73	1099.82
835.05	1108.95
835.36	1096.78
835.68	1097.01
836.00	1098.41
836.32	1091.39
836.63	1091.16
836.95	1088.12
837.27	1083.67
837.59	1078.75
837.90	1077.58
838.22	1072.90
838.54	1067.99
838.85	1067.05
839.17	1071.26
839.49	1080.16
839.80	1078.52
840.12	1088.82
840.44	1092.80
840.76	1089.99
841.07	1073.60
841.39	1067.75
841.71	1074.77
842.02	1073.60
842.34	1083.90
842.65	1091.16
842.97	1091.39
843.29	1092.80
843.60	1092.33
843.92	1074.77
844.24	1083.20
844.55	1081.09
844.87	1072.90
845.18	1062.14
845.50	1073.14
845.82	1057.92
846.13	1059.09
846.45	1055.35
846.76	1073.84
847.08	1074.31
847.40	1072.43
847.71	1076.65
848.03	1079.22
848.34	1076.18
848.66	1074.77
848.97	1074.77
849.29	1074.54
849.60	1079.69
849.92	1078.05
850.24	1073.84
850.55	1094.67
850.87	1101.69
851.18	1093.73
851.50	1084.84
851.81	1085.07
852.13	1065.88
852.44	1055.11
852.76	1056.28
853.07	1064.48
853.39	1064.71
853.70	1078.52
854.01	1077.82
854.33	1074.77
854.64	1076.18
854.96	1084.60
855.27	1084.60
855.59	1084.60
855.90	1090.69
856.22	1089.52
856.53	1080.63
856.84	1077.82
857.16	1089.52
857.47	1092.56
857.79	1084.37
858.10	1088.58
858.41	1090.22
858.73	1086.94
859.04	1073.60
859.36	1075.71
859.67	1077.58
859.98	1076.65
860.30	1074.07
860.61	1082.73
860.92	1084.60
861.24	1072.90
861.55	1071.73
861.87	1071.03
862.18	1063.07
862.49	1066.58
862.81	1059.09
863.12	1060.26
863.43	1058.39
863.74	1064.71
864.06	1066.82
864.37	1086.94
864.68	1082.03
865.00	1081.33
865.31	1079.92
865.62	1074.54
865.94	1078.52
866.25	1090.46
866.56	1096.54
866.87	1091.16
867.19	1089.75
867.50	1088.12
867.81	1085.31
868.12	1089.52
868.44	1103.09
868.75	1101.46
869.06	1086.48
869.37	1071.03
869.68	1065.41
870.00	1058.62
870.31	1067.99
870.62	1067.99
870.93	1075.24
871.24	1077.35
871.56	1084.14
871.87	1076.41
872.18	1080.86
872.49	1078.52
872.80	1076.65
873.12	1066.82
873.43	1074.31
873.74	1077.82
874.05	1079.92
874.36	1075.94
874.67	1081.33
874.98	1080.86
875.29	1081.33
875.61	1072.90
875.92	1081.33
876.23	1082.50
876.54	1075.71
876.85	1065.18
877.16	1067.75
877.47	1064.01
877.78	1064.48
878.09	1067.28
878.40	1074.77
878.72	1075.48
879.03	1075.01
879.34	1077.11
879.65	1088.82
879.96	1089.05
880.27	1092.09
880.58	1091.16
880.89	1088.35
881.20	1076.41
881.51	1078.05
881.82	1080.86
882.13	1072.90
882.44	1064.71
882.75	1067.75
883.06	1055.35
883.37	1051.84
883.68	1062.84
883.99	1076.65
884.30	1077.35
884.61	1083.43
884.92	1086.24
885.23	1075.71
885.54	1064.24
885.85	1058.16
886.16	1061.43
886.47	1060.73
886.78	1066.58
887.08	1073.84
887.39	1082.50
887.70	1085.54
888.01	1081.09
888.32	1074.77
888.63	1075.48
888.94	1057.92
889.25	1061.90
889.56	1072.20
889.87	1078.75
890.17	1071.26
890.48	1085.77
890.79	1077.11
891.10	1070.56
891.41	1074.77
891.72	1073.60
892.03	1074.07
892.34	1078.75
892.64	1089.05
892.95	1080.16
893.26	1095.37
893.57	1090.46
893.88	1084.14
894.18	1081.56
894.49	1082.97
894.80	1066.58
895.11	1071.97
895.42	1082.97
895.72	1079.46
896.03	1089.29
896.34	1094.67
896.65	1093.73
896.96	1092.09
897.26	1097.24
897.57	1093.03
897.88	1092.09
898.19	1092.33
898.49	1088.35
898.80	1087.18
899.11	1080.16
899.41	1075.01
899.72	1083.43
900.03	1093.03
900.34	1085.31
900.64	1089.99
900.95	1094.67
901.26	1083.90
901.56	1079.22
901.87	1085.07
902.18	1085.31
902.48	1097.01
902.79	1097.95
903.10	1098.88
903.40	1102.86
903.71	1104.03
904.02	1090.46
904.32	1085.54
904.63	1078.52
904.94	1075.94
905.24	1083.43
905.55	1085.77
905.85	1087.88
906.16	1083.90
906.47	1074.07
906.77	1062.37
907.08	1064.71
907.38	1066.11
907.69	1068.69
908.00	1069.16
908.30	1068.22
908.61	1067.05
908.91	1066.82
909.22	1071.97
909.52	1081.33
909.83	1091.63
910.14	1093.03
910.44	1088.82
910.75	1083.67
911.05	1070.56
911.36	1052.77
911.66	1054.41
911.97	1062.84
912.27	1057.69
912.58	1067.05
912.88	1073.60
913.19	1065.88
913.49	1068.22
913.80	1076.18
914.10	1072.43
914.41	1081.80
914.71	1084.84
915.01	1074.77
915.32	1073.14
915.62	1078.99
915.93	1068.69
916.23	1073.14
916.54	1076.41
916.84	1074.54
917.15	1068.92
917.45	1072.67
917.75	1078.99
918.06	1079.92
918.36	1080.39
918.67	1089.52
918.97	1089.99
919.27	1080.16
919.58	1080.39
919.88	1081.56
920.18	1067.75
920.49	1076.18
920.79	1074.77
921.10	1068.45
921.40	1072.43
921.70	1078.52
922.01	1072.43
922.31	1079.22
922.61	1085.77
922.92	1087.41
923.22	1087.65
923.52	1088.58
923.82	1083.90
924.13	1083.90
924.43	1085.77
924.73	1078.05
925.04	1076.18
925.34	1079.69
925.64	1075.01
925.94	1060.03
926.25	1063.07
926.55	1060.73
926.85	1048.79
927.15	1055.82
927.46	1060.50
927.76	1062.14
928.06	1063.07
928.36	1073.14
928.67	1064.94
928.97	1069.16
929.27	1072.20
929.57	1075.94
929.87	1068.45
930.18	1078.05
930.48	1073.84
930.78	1063.31
931.08	1057.69
931.38	1063.77
931.69	1067.28
931.99	1070.33
932.29	1081.33
932.59	1083.67
932.89	1079.22
933.19	1077.11
933.49	1079.92
933.80	1083.67
934.10	1080.86
934.40	1084.14
934.70	1082.03
935.00	1074.31
935.30	1072.20
935.60	1068.45
935.90	1071.26
936.20	1068.22
936.50	1074.07
936.81	1076.41
937.11	1088.58
937.41	1095.14
937.71	1089.99
938.01	1091.16
938.31	1086.71
938.61	1083.90
938.91	1077.35
939.21	1083.20
939.51	1089.05
939.81	1092.80
940.11	1085.77
940.41	1082.73
940.71	1085.54
941.01	1078.52
941.31	1071.73
941.61	1065.88
941.91	1066.82
942.21	1058.16
942.51	1055.58
942.81	1064.48
943.11	1084.14
943.41	1090.22
943.71	1090.46
944.01	1097.95
944.31	1093.26
944.61	1087.65
944.90	1083.90
945.20	1088.12
945.50	1089.75
945.80	1089.29
946.10	1087.18
946.40	1082.73
946.70	1083.67
947.00	1074.54
947.30	1072.20
947.60	1066.58
947.89	1062.84
948.19	1057.22
948.49	1056.28
948.79	1055.82
949.09	1057.92
949.39	1061.20
949.69	1066.82
949.98	1071.97
950.28	1068.45
950.58	1067.75
950.88	1064.71
951.18	1062.37
951.48	1061.90
951.77	1060.50
952.07	1057.69
952.37	1063.54
952.67	1060.96
952.97	1062.14
953.26	1075.48
953.56	1091.16
953.86	1088.58
954.16	1095.14
954.45	1099.58
954.75	1090.92
955.05	1084.14
955.35	1097.95
955.64	1097.48
955.94	1087.88
956.24	1079.46
956.54	1072.20
956.83	1060.26
957.13	1066.11
957.43	1073.37
957.72	1082.97
958.02	1080.16
958.32	1082.73
958.61	1070.09
958.91	1060.96
959.21	1064.24
959.50	1076.41
959.80	1075.01
960.10	1067.99
960.39	1076.41
960.69	1071.97
960.99	1070.33
961.28	1079.46
961.58	1094.90
961.87	1098.65
962.17	1099.82
962.47	1098.18
962.76	1093.26
963.06	1090.92
963.36	1077.58
963.65	1074.54
963.95	1078.05
964.24	1076.65
964.54	1085.07
964.83	1092.33
965.13	1093.03
965.42	1093.26
965.72	1092.09
966.02	1087.65
966.31	1091.39
966.61	1102.16
966.90	1101.69
967.20	1105.20
967.49	1099.58
967.79	1099.35
968.08	1095.37
968.38	1087.41
968.67	1088.12
968.97	1085.54
969.26	1087.65
969.56	1086.01
969.85	1093.50
970.15	1083.43
970.44	1074.77
970.74	1074.77
971.03	1068.92
971.32	1069.62
971.62	1073.60
971.91	1084.84
972.21	1082.50
972.50	1078.75
972.80	1070.09
973.09	1073.14
973.38	1077.35
973.68	1075.01
973.97	1088.58
974.27	1088.58
974.56	1086.48
974.85	1078.28
975.15	1074.54
975.44	1061.90
975.73	1064.71
976.03	1064.71
976.32	1064.24
976.61	1063.54
976.91	1070.80
977.20	1071.73
977.49	1074.31
977.79	1088.82
978.08	1092.33
978.37	1092.80
978.67	1090.92
978.96	1088.82
979.25	1078.99
979.55	1073.84
979.84	1072.20
980.13	1074.07
980.42	1071.50
980.72	1065.88
981.01	1068.92
981.30	1062.84
981.59	1062.37
981.89	1064.48
982.18	1070.33
982.47	1064.71
982.76	1069.86
983.06	1072.90
983.35	1062.14
983.64	1061.20
983.93	1069.62
984.22	1072.90
984.52	1075.01
984.81	1089.75
985.10	1083.20
985.39	1075.24
985.68	1071.26
985.97	1064.48
986.27	1067.99
986.56	1076.88
986.85	1080.39
987.14	1081.09
987.43	1089.29
987.72	1080.63
988.01	1080.39
988.31	1080.86
988.60	1080.39
988.89	1074.31
989.18	1077.11
989.47	1081.09
989.76	1086.71
990.05	1092.80
990.34	1088.58
990.63	1085.77
990.92	1078.28
991.21	1078.75
991.51	1076.18
991.80	1086.71
992.09	1084.37
992.38	1080.16
992.67	1078.75
992.96	1079.22
993.25	1065.18
993.54	1065.65
993.83	1072.90
994.12	1072.20
994.41	1067.28
994.70	1080.16
994.99	1072.67
995.28	1071.50
995.57	1072.90
995.86	1069.16
996.15	1060.96
996.44	1072.90
996.73	1077.82
997.02	1073.84
997.31	1077.35
997.59	1082.26
997.88	1082.03
998.17	1086.01
998.46	1088.12
998.75	1090.22
999.04	1087.65
999.33	1087.18
999.62	1083.67
999.91	1084.84
1000.20	1092.33
1000.49	1092.80
1000.77	1083.67
1001.06	1077.11
1001.35	1077.82
1001.64	1076.41
1001.93	1076.41
1002.22	1079.46
1002.51	1084.60
1002.79	1080.16
1003.08	1075.48
1003.37	1069.62
1003.66	1078.05
1003.95	1063.31
1004.23	1065.18
1004.52	1072.20
1004.81	1073.37
1005.10	1072.90
1005.39	1086.71
1005.67	1088.82
1005.96	1083.67
1006.25	1084.14
1006.54	1083.43
1006.83	1087.65
1007.11	1086.24
1007.40	1081.33
1007.69	1089.05
1007.97	1083.90
1008.26	1077.58
1008.55	1075.01
1008.84	1085.31
1009.12	1080.63
1009.41	1087.88
1009.70	1081.09
1009.98	1079.22
1010.27	1077.11
1010.56	1088.35
1010.85	1085.31
1011.13	1090.92
1011.42	1097.95
1011.71	1087.65
1011.99	1079.46
1012.28	1076.18
1012.56	1078.05
1012.85	1083.43
1013.14	1086.24
1013.42	1088.35
1013.71	1092.56
1014.00	1087.18
1014.28	1081.33
1014.57	1078.52
1014.85	1075.01
1015.14	1065.18
1015.43	1070.33
1015.71	1071.26
1016.00	1067.75
1016.28	1069.62
1016.57	1076.65
1016.85	1064.01
1017.14	1057.69
1017.43	1062.37
1017.71	1060.03
1018.00	1060.96
1018.28	1077.58
1018.57	1079.92
1018.85	1084.60
1019.14	1093.26
1019.42	1094.67
1019.71	1088.58
1019.99	1085.54
1020.28	1100.52
1020.56	1087.88
1020.85	1088.58
1021.13	1087.18
1021.42	1087.41
1021.70	1077.82
1021.99	1096.54
1022.27	1088.35
1022.55	1151.54
1022.84	1049.73
>>>>>End Processed Spectral Data<<<<<
