SpectraSuite Data File
++++++++++++++++++++++++++++++++++++
Date: Mon Aug 26 10:24:52 PDT 2019
User: corrico
Dark Spectrum Present: No
Reference Spectrum Present: No
Number of Sampled Component Spectra: 1
Spectrometers: USB2+H06089
Integration Time (usec): 10000 (USB2+H06089)
Spectra Averaged: 2 (USB2+H06089)
Boxcar Smoothing: 2 (USB2+H06089)
Correct for Electrical Dark: No (USB2+H06089)
Strobe/Lamp Enabled: No (USB2+H06089)
Correct for Detector Non-linearity: No (USB2+H06089)
Correct for Stray Light: No (USB2+H06089)
Number of Pixels in Processed Spectrum: 2048
>>>>>Begin Processed Spectral Data<<<<<
339.70	993.56
340.07	993.56
340.45	985.13
340.82	977.64
341.19	967.34
341.57	944.17
341.94	928.26
342.31	912.11
342.69	908.13
343.06	907.43
343.43	917.96
343.81	925.68
344.18	920.30
344.55	918.89
344.93	908.83
345.30	905.55
345.67	903.91
346.04	923.34
346.42	927.32
346.79	949.09
347.16	962.90
347.54	971.32
347.91	973.66
348.28	981.39
348.65	986.54
349.03	1001.28
349.40	1013.45
349.77	1026.32
350.14	1036.39
350.52	1051.60
350.89	1042.71
351.26	1050.43
351.63	1056.52
352.01	1056.75
352.38	1056.75
352.75	1076.18
353.12	1083.20
353.50	1077.58
353.87	1086.71
354.24	1079.69
354.61	1082.26
354.98	1082.50
355.36	1091.16
355.73	1097.95
356.10	1100.99
356.47	1086.94
356.84	1084.37
357.22	1084.60
357.59	1081.33
357.96	1090.92
358.33	1100.75
358.70	1104.97
359.08	1104.03
359.45	1107.78
359.82	1099.12
360.19	1101.69
360.56	1106.61
360.94	1112.22
361.31	1104.97
361.68	1105.67
362.05	1107.54
362.42	1097.95
362.79	1096.54
363.16	1094.67
363.54	1095.60
363.91	1087.65
364.28	1082.03
364.65	1072.90
365.02	1073.60
365.39	1072.90
365.76	1071.03
366.14	1075.24
366.51	1085.31
366.88	1082.50
367.25	1079.92
367.62	1076.88
367.99	1075.24
368.36	1072.90
368.73	1081.09
369.10	1083.67
369.48	1091.39
369.85	1104.97
370.22	1104.50
370.59	1097.48
370.96	1103.33
371.33	1094.43
371.70	1088.35
372.07	1090.92
372.44	1094.90
372.81	1089.52
373.18	1096.31
373.55	1094.90
373.93	1088.12
374.30	1086.01
374.67	1093.03
375.04	1089.52
375.41	1098.18
375.78	1094.20
376.15	1102.86
376.52	1092.09
376.89	1100.29
377.26	1092.09
377.63	1097.71
378.00	1095.84
378.37	1099.12
378.74	1110.35
379.11	1115.03
379.48	1121.35
379.85	1119.48
380.22	1121.12
380.59	1095.84
380.96	1085.54
381.33	1081.09
381.70	1075.71
382.07	1075.94
382.44	1088.58
382.81	1103.09
383.18	1101.69
383.55	1102.63
383.92	1095.84
384.29	1096.78
384.66	1097.71
385.03	1102.39
385.40	1102.63
385.77	1110.35
386.14	1109.65
386.51	1111.05
386.88	1110.58
387.25	1114.56
387.62	1101.69
387.99	1106.61
388.36	1093.50
388.73	1093.26
389.10	1093.97
389.46	1104.26
389.83	1098.88
390.20	1102.63
390.57	1101.69
390.94	1103.56
391.31	1108.24
391.68	1113.86
392.05	1114.80
392.42	1119.01
392.79	1118.78
393.16	1126.27
393.53	1110.58
393.89	1105.90
394.26	1099.35
394.63	1099.12
395.00	1090.69
395.37	1104.97
395.74	1113.16
396.11	1112.69
396.48	1114.56
396.84	1113.16
397.21	1105.20
397.58	1104.97
397.95	1108.48
398.32	1105.90
398.69	1108.95
399.06	1116.20
399.42	1114.56
399.79	1122.75
400.16	1138.20
400.53	1150.37
400.90	1157.39
401.27	1165.35
401.64	1178.23
402.00	1182.91
402.37	1187.35
402.74	1192.97
403.11	1201.63
403.48	1189.69
403.84	1179.40
404.21	1183.84
404.58	1195.08
404.95	1205.61
405.32	1218.48
405.68	1239.55
406.05	1248.91
406.42	1258.74
406.79	1263.42
407.16	1282.15
407.52	1300.40
407.89	1324.28
408.26	1346.04
408.63	1369.21
408.99	1390.04
409.36	1412.98
409.73	1429.83
410.10	1457.69
410.47	1490.45
410.83	1524.16
411.20	1549.67
411.57	1586.18
411.94	1611.46
412.30	1658.27
412.67	1696.19
413.04	1750.49
413.40	1795.66
413.77	1862.83
414.14	1909.17
414.51	1974.94
414.87	2035.56
415.24	2113.97
415.61	2191.44
415.97	2275.23
416.34	2358.09
416.71	2442.11
417.08	2549.55
417.44	2645.04
417.81	2757.85
418.18	2877.69
418.54	3024.67
418.91	3154.81
419.28	3310.69
419.64	3460.72
420.01	3629.47
420.38	3788.63
420.74	3955.51
421.11	4146.26
421.48	4355.50
421.84	4575.05
422.21	4787.33
422.58	5050.88
422.94	5326.83
423.31	5574.69
423.68	5828.64
424.04	6140.86
424.41	6424.07
424.77	6685.27
425.14	6996.10
425.51	7325.17
425.87	7657.06
426.24	8036.70
426.61	8469.70
426.97	8951.85
427.34	9401.23
427.70	9896.96
428.07	10367.40
428.44	10898.70
428.80	11393.96
429.17	11940.01
429.53	12489.33
429.90	13117.77
430.27	13610.22
430.63	14184.58
431.00	14835.02
431.36	15584.22
431.73	16212.42
432.09	16912.71
432.46	17615.11
432.83	18229.50
433.19	18739.27
433.56	19420.83
433.92	20103.80
434.29	20709.06
434.65	21415.67
435.02	22047.61
435.38	22684.24
435.75	23237.31
436.11	23806.76
436.48	24297.34
436.84	24836.36
437.21	25274.98
437.57	25729.74
437.94	26189.19
438.30	26576.31
438.67	26858.35
439.03	27009.31
439.40	27177.36
439.76	27125.40
440.13	27001.12
440.49	26954.55
440.86	26725.17
441.22	26372.22
441.59	26016.22
441.95	25672.87
442.32	25149.06
442.68	24738.99
443.05	24246.08
443.41	23784.06
443.78	23178.56
444.14	22589.68
444.51	22005.95
444.87	21600.57
445.24	21130.12
445.60	20722.64
445.96	20206.78
446.33	19683.44
446.69	19050.56
447.06	18504.04
447.42	17931.08
447.79	17462.74
448.15	17051.74
448.51	16590.89
448.88	16146.42
449.24	15724.19
449.61	15372.87
449.97	14955.32
450.33	14612.43
450.70	14202.37
451.06	13886.40
451.43	13450.36
451.79	13117.30
452.15	12776.75
452.52	12503.14
452.88	12182.25
453.24	11913.33
453.61	11646.74
453.97	11372.19
454.34	11030.24
454.70	10748.91
455.06	10522.11
455.43	10213.86
455.79	9845.23
456.15	9560.15
456.52	9231.54
456.88	8937.57
457.24	8648.75
457.61	8439.97
457.97	8231.90
458.33	8011.89
458.70	7723.77
459.06	7454.14
459.42	7221.25
459.79	6955.14
460.15	6723.19
460.51	6499.43
460.88	6312.66
461.24	6119.56
461.60	5946.13
461.96	5773.63
462.33	5647.01
462.69	5495.81
463.05	5337.12
463.42	5190.84
463.78	5074.98
464.14	4930.57
464.50	4802.55
464.87	4700.97
465.23	4605.47
465.59	4480.02
465.95	4367.21
466.32	4268.43
466.68	4140.88
467.04	4022.44
467.40	3930.46
467.77	3853.93
468.13	3774.82
468.49	3733.39
468.85	3679.32
469.22	3617.77
469.58	3545.44
469.94	3493.48
470.30	3422.10
470.66	3371.31
471.03	3307.65
471.39	3260.13
471.75	3189.68
472.11	3130.00
472.47	3064.46
472.84	3013.21
473.20	2959.61
473.56	2914.20
473.92	2870.43
474.28	2837.43
474.65	2779.15
475.01	2743.81
475.37	2698.87
475.73	2645.04
476.09	2596.82
476.45	2570.84
476.81	2531.52
477.18	2482.37
477.54	2453.58
477.90	2404.43
478.26	2358.32
478.62	2314.09
478.98	2296.30
479.34	2269.15
479.71	2249.02
480.07	2223.98
480.43	2206.42
480.79	2176.93
481.15	2149.08
481.51	2102.50
481.87	2088.46
482.23	2052.18
482.59	2029.48
482.96	2003.97
483.32	2004.20
483.68	1969.56
484.04	1968.86
484.40	1942.88
484.76	1916.43
485.12	1897.00
485.48	1884.37
485.84	1852.77
486.20	1840.83
486.56	1832.64
486.92	1807.36
487.28	1790.04
487.64	1774.59
488.00	1747.68
488.37	1722.40
488.73	1713.74
489.09	1706.48
489.45	1687.29
489.81	1670.21
490.17	1663.18
490.53	1652.18
490.89	1631.12
491.25	1612.16
491.61	1606.31
491.97	1581.73
492.33	1559.97
492.69	1541.24
493.05	1525.56
493.41	1508.94
493.77	1493.96
494.13	1487.18
494.49	1474.54
494.85	1463.54
495.21	1461.66
495.57	1447.15
495.93	1437.79
496.29	1423.05
496.64	1425.85
497.00	1404.09
497.36	1402.21
497.72	1391.21
498.08	1383.02
498.44	1366.40
498.80	1357.74
499.16	1349.32
499.52	1351.89
499.88	1355.17
500.24	1354.70
500.60	1354.00
500.96	1339.72
501.32	1313.74
501.68	1309.06
502.03	1293.38
502.39	1291.51
502.75	1297.12
503.11	1295.25
503.47	1290.81
503.83	1289.64
504.19	1284.49
504.55	1280.27
504.91	1276.29
505.26	1274.66
505.62	1272.32
505.98	1257.57
506.34	1245.63
506.70	1241.65
507.06	1233.70
507.42	1218.95
507.78	1214.74
508.13	1210.29
508.49	1209.82
508.85	1203.97
509.21	1211.46
509.57	1207.72
509.93	1214.27
510.28	1212.40
510.64	1214.74
511.00	1205.14
511.36	1203.27
511.72	1195.55
512.07	1192.03
512.43	1180.57
512.79	1187.35
513.15	1193.44
513.51	1193.44
513.86	1192.03
514.22	1199.76
514.58	1192.27
514.94	1173.78
515.30	1169.10
515.65	1156.22
516.01	1146.16
516.37	1145.46
516.73	1160.44
517.08	1166.05
517.44	1177.76
517.80	1170.50
518.16	1173.78
518.51	1164.18
518.87	1152.95
519.23	1151.08
519.59	1152.48
519.94	1145.46
520.30	1148.50
520.66	1142.18
521.01	1126.50
521.37	1136.33
521.73	1129.54
522.09	1127.20
522.44	1131.88
522.80	1151.54
523.16	1144.76
523.51	1142.88
523.87	1143.82
524.23	1151.08
524.58	1145.69
524.94	1142.18
525.30	1148.03
525.65	1151.31
526.01	1142.88
526.37	1123.46
526.72	1121.12
527.08	1123.22
527.44	1116.20
527.79	1115.50
528.15	1124.39
528.51	1118.07
528.86	1123.46
529.22	1122.52
529.58	1124.63
529.93	1120.88
530.29	1128.37
530.65	1107.78
531.00	1105.90
531.36	1109.65
531.71	1117.61
532.07	1112.92
532.43	1121.82
532.78	1125.80
533.14	1116.67
533.49	1117.84
533.85	1125.10
534.21	1124.86
534.56	1123.93
534.92	1126.27
535.27	1124.39
535.63	1118.31
535.98	1109.41
536.34	1109.88
536.69	1109.65
537.05	1103.56
537.41	1105.20
537.76	1105.44
538.12	1101.22
538.47	1104.26
538.83	1099.12
539.18	1106.61
539.54	1111.05
539.89	1109.18
540.25	1095.60
540.60	1098.41
540.96	1092.80
541.31	1089.52
541.67	1097.24
542.02	1104.03
542.38	1104.73
542.73	1103.80
543.09	1108.01
543.44	1096.07
543.80	1101.46
544.15	1104.50
544.51	1108.95
544.86	1108.95
545.22	1112.22
545.57	1106.37
545.93	1101.92
546.28	1097.48
546.64	1096.78
546.99	1096.78
547.35	1098.88
547.70	1104.73
548.05	1103.56
548.41	1108.95
548.76	1102.86
549.12	1103.33
549.47	1103.80
549.83	1099.82
550.18	1101.92
550.53	1108.95
550.89	1117.84
551.24	1122.99
551.60	1134.69
551.95	1118.07
552.30	1117.37
552.66	1110.58
553.01	1097.01
553.37	1085.77
553.72	1091.16
554.07	1089.05
554.43	1082.50
554.78	1084.14
555.13	1093.03
555.49	1101.46
555.84	1104.50
556.19	1115.03
556.55	1124.63
556.90	1119.95
557.26	1114.10
557.61	1112.46
557.96	1104.50
558.32	1102.39
558.67	1089.52
559.02	1083.67
559.37	1086.01
559.73	1092.33
560.08	1092.09
560.43	1102.86
560.79	1108.24
561.14	1104.03
561.49	1089.29
561.85	1080.39
562.20	1078.28
562.55	1076.88
562.90	1085.07
563.26	1081.56
563.61	1086.94
563.96	1082.97
564.32	1084.60
564.67	1086.24
565.02	1115.03
565.37	1116.67
565.73	1121.58
566.08	1125.10
566.43	1122.75
566.78	1111.05
567.14	1100.29
567.49	1103.80
567.84	1104.03
568.19	1103.33
568.54	1106.61
568.90	1111.99
569.25	1106.84
569.60	1098.18
569.95	1098.41
570.31	1086.94
570.66	1082.73
571.01	1078.99
571.36	1080.16
571.71	1074.31
572.06	1071.50
572.42	1076.41
572.77	1085.07
573.12	1093.26
573.47	1088.58
573.82	1093.97
574.18	1098.65
574.53	1091.63
574.88	1086.94
575.23	1089.75
575.58	1100.05
575.93	1097.71
576.28	1107.31
576.64	1108.24
576.99	1114.80
577.34	1108.95
577.69	1114.33
578.04	1103.09
578.39	1103.80
578.74	1094.43
579.09	1090.69
579.44	1080.63
579.80	1087.65
580.15	1086.94
580.50	1090.69
580.85	1096.54
581.20	1102.86
581.55	1108.95
581.90	1112.22
582.25	1115.50
582.60	1118.31
582.95	1112.92
583.30	1097.24
583.65	1100.29
584.00	1096.78
584.35	1084.14
584.71	1092.80
585.06	1092.56
585.41	1083.20
585.76	1088.35
586.11	1085.31
586.46	1080.16
586.81	1083.43
587.16	1093.26
587.51	1096.78
587.86	1106.61
588.21	1104.73
588.56	1104.97
588.91	1091.86
589.26	1084.60
589.61	1079.22
589.96	1083.20
590.31	1091.86
590.66	1091.86
591.01	1098.88
591.36	1100.75
591.71	1095.60
592.06	1098.88
592.41	1108.48
592.76	1096.07
593.10	1096.07
593.45	1105.20
593.80	1102.39
594.15	1094.90
594.50	1101.69
594.85	1104.03
595.20	1096.54
595.55	1097.95
595.90	1105.20
596.25	1103.09
596.60	1094.43
596.95	1095.60
597.30	1082.03
597.64	1124.39
597.99	1132.35
598.34	1140.31
598.69	1138.20
599.04	1148.50
599.39	1103.09
599.74	1097.24
600.09	1096.31
600.44	1104.26
600.78	1092.56
601.13	1096.78
601.48	1086.24
601.83	1081.56
602.18	1075.01
602.53	1091.16
602.88	1086.48
603.22	1093.26
603.57	1099.58
603.92	1101.22
604.27	1093.73
604.62	1094.43
604.97	1095.84
605.31	1086.01
605.66	1085.07
606.01	1089.75
606.36	1086.48
606.71	1089.75
607.05	1090.22
607.40	1081.09
607.75	1072.90
608.10	1082.03
608.44	1085.77
608.79	1097.48
609.14	1101.46
609.49	1101.69
609.84	1096.07
610.18	1086.71
610.53	1085.07
610.88	1085.54
611.23	1082.73
611.57	1087.18
611.92	1093.26
612.27	1090.22
612.62	1088.82
612.96	1093.73
613.31	1092.80
613.66	1099.82
614.00	1106.14
614.35	1107.07
614.70	1114.56
615.05	1112.22
615.39	1112.46
615.74	1104.97
616.09	1115.03
616.43	1103.56
616.78	1101.92
617.13	1092.33
617.47	1091.16
617.82	1082.26
618.17	1086.48
618.51	1088.82
618.86	1087.65
619.21	1090.92
619.55	1102.63
619.90	1104.26
620.25	1098.18
620.59	1099.35
620.94	1089.05
621.29	1078.05
621.63	1078.99
621.98	1087.18
622.32	1092.33
622.67	1096.54
623.02	1099.82
623.36	1096.54
623.71	1082.73
624.05	1075.71
624.40	1085.31
624.75	1088.58
625.09	1088.82
625.44	1104.73
625.78	1101.46
626.13	1103.80
626.48	1084.60
626.82	1077.35
627.17	1070.09
627.51	1069.39
627.86	1060.73
628.20	1078.05
628.55	1083.90
628.89	1084.14
629.24	1100.29
629.58	1105.20
629.93	1101.69
630.28	1089.75
630.62	1088.82
630.97	1081.33
631.31	1071.03
631.66	1068.45
632.00	1083.43
632.35	1086.24
632.69	1085.54
633.04	1096.54
633.38	1101.46
633.73	1093.03
634.07	1098.18
634.42	1089.29
634.76	1075.94
635.11	1078.28
635.45	1085.07
635.79	1082.50
636.14	1084.84
636.48	1085.31
636.83	1080.39
637.17	1089.75
637.52	1086.94
637.86	1092.33
638.21	1101.22
638.55	1101.46
638.89	1092.09
639.24	1093.50
639.58	1098.41
639.93	1097.01
640.27	1109.41
640.61	1100.05
640.96	1097.95
641.30	1095.60
641.65	1106.37
641.99	1093.73
642.33	1100.99
642.68	1094.20
643.02	1091.63
643.37	1084.37
643.71	1089.29
644.05	1095.37
644.40	1089.05
644.74	1086.24
645.08	1082.97
645.43	1076.41
645.77	1062.37
646.11	1073.84
646.46	1078.99
646.80	1082.03
647.14	1091.39
647.49	1105.44
647.83	1105.90
648.17	1106.84
648.52	1109.65
648.86	1104.03
649.20	1100.99
649.55	1102.39
649.89	1090.22
650.23	1083.67
650.57	1081.33
650.92	1081.09
651.26	1085.77
651.60	1086.71
651.95	1087.88
652.29	1089.99
652.63	1100.75
652.97	1092.33
653.32	1097.71
653.66	1103.56
654.00	1108.24
654.34	1102.86
654.69	1116.44
655.03	1118.54
655.37	1112.46
655.71	1101.22
656.05	1094.43
656.40	1089.52
656.74	1083.20
657.08	1083.20
657.42	1091.86
657.76	1081.33
658.11	1071.97
658.45	1070.09
658.79	1076.88
659.13	1079.92
659.47	1084.60
659.82	1086.48
660.16	1088.35
660.50	1076.65
660.84	1070.09
661.18	1071.97
661.52	1076.41
661.87	1072.67
662.21	1073.37
662.55	1070.09
662.89	1078.05
663.23	1075.01
663.57	1079.22
663.91	1084.84
664.25	1079.22
664.60	1069.62
664.94	1063.31
665.28	1066.35
665.62	1060.03
665.96	1061.67
666.30	1065.65
666.64	1067.75
666.98	1074.77
667.32	1081.09
667.66	1091.39
668.01	1091.39
668.35	1100.52
668.69	1097.24
669.03	1093.73
669.37	1089.75
669.71	1085.31
670.05	1069.86
670.39	1070.56
670.73	1070.09
671.07	1074.07
671.41	1077.35
671.75	1079.92
672.09	1079.69
672.43	1081.80
672.77	1086.48
673.11	1090.69
673.45	1092.33
673.79	1089.99
674.13	1093.97
674.47	1085.54
674.81	1090.92
675.15	1095.84
675.49	1088.82
675.83	1082.03
676.17	1077.58
676.51	1071.03
676.85	1069.16
677.19	1077.35
677.53	1074.54
677.87	1077.11
678.21	1075.01
678.55	1069.39
678.89	1058.16
679.23	1059.09
679.57	1060.96
679.90	1054.65
680.24	1053.94
680.58	1058.86
680.92	1073.37
681.26	1072.90
681.60	1071.26
681.94	1078.52
682.28	1078.05
682.62	1068.92
682.96	1063.54
683.29	1071.26
683.63	1068.45
683.97	1069.16
684.31	1060.03
684.65	1073.60
684.99	1081.80
685.33	1081.56
685.67	1086.24
686.00	1088.82
686.34	1083.67
686.68	1085.07
687.02	1086.94
687.36	1088.58
687.70	1091.39
688.03	1087.88
688.37	1077.58
688.71	1069.86
689.05	1055.82
689.39	1060.73
689.72	1061.20
690.06	1060.96
690.40	1064.94
690.74	1074.77
691.08	1072.43
691.41	1064.71
691.75	1060.73
692.09	1067.75
692.43	1067.99
692.76	1065.41
693.10	1076.18
693.44	1089.29
693.78	1086.48
694.11	1084.14
694.45	1091.86
694.79	1080.16
695.13	1078.28
695.46	1080.16
695.80	1090.69
696.14	1086.24
696.48	1093.26
696.81	1086.24
697.15	1093.03
697.49	1085.07
697.82	1073.14
698.16	1071.97
698.50	1076.65
698.83	1065.41
699.17	1069.16
699.51	1081.80
699.84	1090.22
700.18	1098.65
700.52	1091.63
700.85	1094.20
701.19	1094.90
701.53	1090.69
701.86	1086.24
702.20	1094.90
702.54	1090.46
702.87	1091.16
703.21	1084.14
703.55	1086.24
703.88	1081.56
704.22	1077.58
704.55	1077.58
704.89	1078.75
705.23	1068.45
705.56	1080.39
705.90	1078.75
706.23	1076.41
706.57	1081.33
706.91	1083.67
707.24	1079.46
707.58	1078.28
707.91	1078.28
708.25	1079.22
708.58	1075.48
708.92	1076.88
709.26	1083.20
709.59	1078.28
709.93	1074.31
710.26	1078.05
710.60	1077.58
710.93	1077.82
711.27	1085.07
711.60	1086.48
711.94	1082.97
712.27	1073.60
712.61	1078.99
712.94	1081.33
713.28	1082.73
713.61	1086.71
713.95	1086.01
714.28	1072.43
714.62	1075.24
714.95	1075.48
715.29	1076.18
715.62	1078.05
715.96	1090.69
716.29	1080.86
716.63	1083.20
716.96	1084.14
717.29	1086.01
717.63	1082.73
717.96	1090.22
718.30	1091.39
718.63	1085.77
718.97	1100.29
719.30	1101.92
719.63	1103.56
719.97	1096.78
720.30	1102.86
720.64	1093.26
720.97	1089.52
721.30	1079.46
721.64	1082.50
721.97	1076.65
722.31	1073.84
722.64	1070.09
722.97	1074.31
723.31	1071.50
723.64	1067.28
723.97	1068.92
724.31	1066.58
724.64	1060.96
724.98	1052.30
725.31	1063.31
725.64	1067.75
725.98	1073.60
726.31	1074.77
726.64	1090.22
726.97	1090.92
727.31	1084.60
727.64	1082.50
727.97	1098.41
728.31	1098.41
728.64	1095.14
728.97	1101.69
729.31	1105.20
729.64	1081.56
729.97	1078.28
730.30	1074.31
730.64	1059.33
730.97	1052.30
731.30	1060.26
731.63	1059.79
731.97	1066.58
732.30	1070.09
732.63	1069.86
732.96	1066.11
733.30	1064.48
733.63	1061.67
733.96	1067.05
734.29	1063.54
734.63	1064.71
734.96	1064.24
735.29	1064.24
735.62	1071.73
735.95	1088.58
736.29	1090.22
736.62	1085.07
736.95	1083.90
737.28	1080.16
737.61	1078.05
737.94	1084.84
738.28	1090.92
738.61	1088.82
738.94	1085.54
739.27	1078.99
739.60	1083.90
739.93	1086.94
740.27	1085.54
740.60	1083.43
740.93	1081.33
741.26	1072.90
741.59	1071.50
741.92	1084.84
742.25	1092.56
742.58	1090.22
742.91	1083.20
743.25	1081.56
743.58	1072.43
743.91	1063.54
744.24	1072.67
744.57	1077.11
744.90	1079.69
745.23	1075.94
745.56	1089.52
745.89	1076.65
746.22	1076.41
746.55	1076.18
746.88	1078.75
747.21	1065.65
747.54	1079.46
747.87	1083.90
748.20	1074.31
748.53	1079.46
748.87	1079.22
749.20	1072.43
749.53	1065.88
749.86	1072.90
750.19	1075.01
750.52	1083.67
750.85	1086.71
751.18	1104.26
751.51	1115.50
751.84	1099.35
752.16	1095.14
752.49	1090.92
752.82	1070.56
753.15	1069.86
753.48	1082.03
753.81	1081.09
754.14	1077.58
754.47	1084.84
754.80	1081.33
755.13	1077.82
755.46	1077.11
755.79	1086.71
756.12	1086.48
756.45	1074.54
756.78	1071.03
757.11	1070.33
757.43	1073.84
757.76	1073.60
758.09	1083.67
758.42	1086.01
758.75	1084.37
759.08	1076.88
759.41	1075.94
759.74	1069.62
760.07	1068.92
760.39	1076.18
760.72	1082.26
761.05	1083.90
761.38	1085.31
761.71	1088.12
762.04	1092.56
762.36	1093.50
762.69	1095.37
763.02	1088.35
763.35	1086.48
763.68	1074.54
764.01	1074.31
764.33	1076.65
764.66	1083.67
764.99	1079.46
765.32	1078.52
765.65	1075.24
765.97	1074.31
766.30	1072.67
766.63	1079.22
766.96	1086.94
767.28	1077.82
767.61	1071.73
767.94	1076.88
768.27	1067.99
768.59	1068.69
768.92	1075.94
769.25	1074.31
769.58	1067.75
769.90	1071.73
770.23	1068.69
770.56	1062.84
770.89	1069.86
771.21	1078.28
771.54	1081.56
771.87	1081.80
772.19	1090.22
772.52	1087.41
772.85	1083.90
773.17	1078.52
773.50	1081.09
773.83	1082.26
774.15	1081.56
774.48	1083.43
774.81	1093.03
775.13	1090.69
775.46	1090.92
775.79	1094.90
776.11	1089.52
776.44	1086.01
776.77	1080.39
777.09	1072.67
777.42	1067.28
777.74	1077.58
778.07	1083.90
778.40	1092.33
778.72	1090.92
779.05	1091.39
779.37	1080.39
779.70	1069.86
780.03	1071.73
780.35	1079.22
780.68	1087.18
781.00	1095.60
781.33	1096.78
781.65	1089.75
781.98	1088.82
782.31	1084.84
782.63	1081.09
782.96	1075.48
783.28	1081.09
783.61	1081.56
783.93	1087.41
784.26	1089.99
784.58	1097.24
784.91	1091.86
785.23	1086.48
785.56	1078.75
785.88	1074.31
786.21	1090.22
786.53	1089.75
786.86	1095.84
787.18	1099.58
787.51	1108.24
787.83	1098.41
788.16	1099.12
788.48	1097.48
788.81	1090.92
789.13	1079.92
789.46	1077.58
789.78	1082.03
790.10	1080.39
790.43	1081.80
790.75	1082.73
791.08	1089.99
791.40	1089.05
791.73	1098.41
792.05	1108.24
792.37	1116.20
792.70	1111.75
793.02	1109.88
793.35	1101.46
793.67	1097.24
793.99	1087.65
794.32	1082.26
794.64	1083.67
794.96	1080.39
795.29	1082.03
795.61	1095.14
795.93	1097.95
796.26	1101.46
796.58	1102.39
796.91	1100.75
797.23	1091.63
797.55	1094.90
797.87	1092.56
798.20	1083.67
798.52	1071.73
798.84	1069.86
799.17	1064.01
799.49	1058.62
799.81	1072.43
800.14	1078.75
800.46	1072.20
800.78	1081.56
801.10	1085.77
801.43	1087.65
801.75	1082.97
802.07	1095.60
802.40	1092.33
802.72	1090.69
803.04	1085.77
803.36	1092.09
803.69	1086.24
804.01	1084.37
804.33	1080.16
804.65	1079.46
804.97	1079.46
805.30	1081.80
805.62	1071.73
805.94	1076.41
806.26	1085.77
806.58	1085.31
806.91	1076.88
807.23	1076.41
807.55	1067.52
807.87	1060.73
808.19	1062.37
808.52	1071.03
808.84	1073.60
809.16	1081.33
809.48	1072.43
809.80	1060.96
810.12	1053.48
810.44	1056.75
810.77	1057.22
811.09	1065.65
811.41	1086.94
811.73	1093.73
812.05	1088.58
812.37	1080.86
812.69	1076.65
813.01	1070.80
813.33	1071.50
813.66	1084.60
813.98	1091.63
814.30	1089.52
814.62	1087.65
814.94	1079.46
815.26	1070.56
815.58	1067.28
815.90	1068.69
816.22	1061.43
816.54	1059.33
816.86	1058.62
817.18	1062.60
817.50	1070.33
817.82	1074.54
818.14	1083.90
818.46	1079.46
818.78	1080.63
819.10	1074.77
819.42	1067.52
819.74	1069.16
820.06	1081.09
820.38	1070.80
820.70	1078.05
821.02	1086.94
821.34	1089.05
821.66	1082.50
821.98	1090.92
822.30	1082.26
822.62	1083.43
822.94	1078.52
823.26	1081.56
823.58	1086.71
823.90	1083.67
824.22	1093.26
824.54	1098.18
824.86	1089.75
825.18	1096.78
825.50	1102.16
825.81	1088.82
826.13	1086.01
826.45	1092.09
826.77	1070.56
827.09	1074.07
827.41	1077.82
827.73	1071.97
828.05	1064.71
828.36	1071.73
828.68	1078.99
829.00	1076.18
829.32	1083.90
829.64	1093.97
829.96	1099.82
830.28	1089.99
830.59	1090.92
830.91	1081.80
831.23	1079.46
831.55	1075.48
831.87	1079.46
832.19	1071.26
832.50	1070.56
832.82	1063.77
833.14	1068.45
833.46	1061.20
833.78	1064.94
834.09	1068.22
834.41	1073.37
834.73	1071.03
835.05	1076.41
835.36	1078.99
835.68	1095.60
836.00	1093.97
836.32	1088.82
836.63	1082.97
836.95	1080.63
837.27	1048.56
837.59	1049.96
837.90	1051.37
838.22	1051.84
838.54	1052.54
838.85	1073.14
839.17	1071.26
839.49	1069.39
839.80	1066.58
840.12	1078.05
840.44	1071.73
840.76	1076.65
841.07	1077.58
841.39	1088.35
841.71	1079.22
842.02	1072.67
842.34	1064.01
842.65	1059.79
842.97	1049.03
843.29	1047.62
843.60	1057.22
843.92	1064.71
844.24	1078.52
844.55	1091.63
844.87	1097.01
845.18	1106.84
845.50	1107.31
845.82	1100.05
846.13	1097.01
846.45	1087.41
846.76	1073.60
847.08	1076.65
847.40	1087.65
847.71	1085.77
848.03	1084.60
848.34	1090.69
848.66	1081.56
848.97	1066.82
849.29	1057.45
849.60	1059.79
849.92	1054.65
850.24	1073.60
850.55	1075.94
850.87	1078.99
851.18	1084.60
851.50	1086.01
851.81	1066.11
852.13	1064.24
852.44	1064.71
852.76	1067.28
853.07	1064.94
853.39	1071.03
853.70	1081.09
854.01	1082.97
854.33	1078.52
854.64	1086.24
854.96	1078.28
855.27	1068.92
855.59	1071.50
855.90	1077.58
856.22	1081.56
856.53	1082.50
856.84	1085.31
857.16	1075.01
857.47	1067.75
857.79	1064.24
858.10	1069.62
858.41	1064.94
858.73	1081.80
859.04	1082.26
859.36	1087.65
859.67	1097.95
859.98	1101.22
860.30	1091.63
860.61	1085.54
860.92	1077.35
861.24	1069.62
861.55	1077.11
861.87	1082.50
862.18	1096.54
862.49	1089.75
862.81	1091.16
863.12	1085.54
863.43	1081.80
863.74	1073.37
864.06	1075.71
864.37	1075.01
864.68	1067.05
865.00	1077.11
865.31	1076.41
865.62	1085.07
865.94	1081.80
866.25	1089.75
866.56	1074.31
866.87	1066.11
867.19	1063.31
867.50	1060.50
867.81	1071.73
868.12	1074.54
868.44	1075.71
868.75	1076.65
869.06	1083.43
869.37	1058.16
869.68	1061.43
870.00	1074.77
870.31	1074.77
870.62	1063.07
870.93	1078.99
871.24	1078.75
871.56	1075.71
871.87	1069.39
872.18	1075.71
872.49	1078.99
872.80	1072.43
873.12	1072.20
873.43	1070.33
873.74	1066.11
874.05	1068.69
874.36	1071.26
874.67	1059.09
874.98	1069.16
875.29	1082.03
875.61	1074.31
875.92	1072.43
876.23	1082.50
876.54	1079.92
876.85	1064.71
877.16	1063.77
877.47	1071.73
877.78	1073.60
878.09	1077.11
878.40	1089.05
878.72	1082.26
879.03	1079.22
879.34	1078.05
879.65	1075.01
879.96	1080.86
880.27	1096.78
880.58	1094.67
880.89	1103.80
881.20	1103.09
881.51	1097.24
881.82	1082.73
882.13	1079.69
882.44	1078.05
882.75	1080.86
883.06	1078.28
883.37	1085.77
883.68	1085.77
883.99	1085.54
884.30	1071.73
884.61	1063.77
884.92	1071.26
885.23	1078.28
885.54	1069.86
885.85	1085.07
886.16	1093.97
886.47	1082.97
886.78	1075.94
887.08	1073.14
887.39	1060.50
887.70	1055.58
888.01	1054.18
888.32	1059.33
888.63	1063.54
888.94	1076.18
889.25	1086.24
889.56	1085.31
889.87	1075.48
890.17	1077.35
890.48	1070.56
890.79	1065.41
891.10	1070.09
891.41	1071.73
891.72	1067.75
892.03	1072.67
892.34	1079.46
892.64	1081.56
892.95	1079.46
893.26	1089.52
893.57	1084.60
893.88	1076.18
894.18	1079.69
894.49	1089.99
894.80	1075.24
895.11	1076.88
895.42	1071.03
895.72	1067.99
896.03	1080.16
896.34	1088.12
896.65	1093.73
896.96	1106.14
897.26	1102.86
897.57	1100.29
897.88	1100.99
898.19	1095.84
898.49	1092.09
898.80	1091.63
899.11	1084.37
899.41	1082.73
899.72	1086.94
900.03	1084.14
900.34	1080.86
900.64	1083.67
900.95	1093.50
901.26	1086.24
901.56	1083.20
901.87	1084.84
902.18	1080.16
902.48	1071.97
902.79	1068.69
903.10	1062.37
903.40	1062.14
903.71	1064.94
904.02	1067.28
904.32	1070.80
904.63	1080.63
904.94	1088.58
905.24	1089.05
905.55	1074.31
905.85	1068.69
906.16	1062.14
906.47	1051.37
906.77	1050.43
907.08	1056.99
907.38	1056.28
907.69	1059.56
908.00	1067.52
908.30	1059.79
908.61	1055.11
908.91	1068.69
909.22	1072.20
909.52	1067.99
909.83	1078.99
910.14	1090.22
910.44	1084.84
910.75	1089.05
911.05	1088.35
911.36	1082.73
911.66	1083.90
911.97	1076.41
912.27	1071.26
912.58	1078.05
912.88	1080.86
913.19	1066.58
913.49	1071.73
913.80	1072.90
914.10	1065.18
914.41	1067.52
914.71	1085.31
915.01	1083.20
915.32	1079.46
915.62	1080.16
915.93	1083.43
916.23	1081.33
916.54	1086.24
916.84	1090.46
917.15	1090.46
917.45	1081.56
917.75	1085.07
918.06	1081.80
918.36	1084.60
918.67	1098.65
918.97	1099.12
919.27	1095.14
919.58	1093.26
919.88	1087.41
920.18	1075.71
920.49	1069.39
920.79	1066.11
921.10	1073.60
921.40	1075.24
921.70	1081.80
922.01	1085.77
922.31	1071.73
922.61	1068.69
922.92	1075.71
923.22	1060.73
923.52	1065.41
923.82	1079.46
924.13	1080.16
924.43	1069.86
924.73	1073.84
925.04	1075.71
925.34	1075.48
925.64	1074.31
925.94	1081.56
926.25	1084.60
926.55	1078.28
926.85	1073.84
927.15	1074.77
927.46	1069.39
927.76	1074.07
928.06	1088.35
928.36	1091.86
928.67	1093.97
928.97	1104.50
929.27	1094.90
929.57	1086.94
929.87	1074.77
930.18	1064.71
930.48	1058.86
930.78	1070.33
931.08	1070.56
931.38	1080.16
931.69	1084.14
931.99	1077.11
932.29	1076.65
932.59	1066.82
932.89	1067.05
933.19	1068.45
933.49	1074.31
933.80	1067.05
934.10	1077.11
934.40	1081.09
934.70	1078.99
935.00	1079.46
935.30	1078.05
935.60	1072.90
935.90	1068.69
936.20	1069.86
936.50	1072.67
936.81	1082.50
937.11	1076.88
937.41	1086.94
937.71	1085.77
938.01	1078.28
938.31	1072.90
938.61	1082.73
938.91	1076.18
939.21	1087.41
939.51	1092.56
939.81	1081.33
940.11	1080.39
940.41	1081.56
940.71	1073.37
941.01	1069.16
941.31	1085.54
941.61	1093.03
941.91	1089.05
942.21	1091.39
942.51	1096.31
942.81	1091.63
943.11	1075.71
943.41	1073.84
943.71	1073.60
944.01	1074.07
944.31	1072.67
944.61	1085.77
944.90	1093.73
945.20	1093.03
945.50	1096.54
945.80	1101.22
946.10	1095.37
946.40	1086.94
946.70	1083.67
947.00	1077.82
947.30	1071.03
947.60	1064.71
947.89	1067.28
948.19	1067.28
948.49	1073.60
948.79	1081.09
949.09	1085.77
949.39	1099.82
949.69	1113.63
949.98	1096.78
950.28	1094.90
950.58	1099.82
950.88	1082.03
951.18	1059.79
951.48	1064.71
951.77	1060.03
952.07	1055.58
952.37	1063.77
952.67	1067.99
952.97	1069.62
953.26	1068.69
953.56	1070.56
953.86	1069.16
954.16	1075.94
954.45	1079.46
954.75	1080.39
955.05	1082.73
955.35	1076.18
955.64	1080.63
955.94	1074.31
956.24	1073.60
956.54	1069.39
956.83	1070.33
957.13	1066.82
957.43	1074.54
957.72	1078.28
958.02	1072.90
958.32	1078.75
958.61	1080.39
958.91	1078.28
959.21	1078.52
959.50	1075.94
959.80	1073.60
960.10	1070.56
960.39	1071.97
960.69	1070.33
960.99	1076.18
961.28	1076.65
961.58	1080.63
961.87	1080.16
962.17	1079.22
962.47	1077.58
962.76	1079.92
963.06	1077.58
963.36	1066.82
963.65	1069.62
963.95	1073.14
964.24	1068.92
964.54	1074.31
964.83	1085.07
965.13	1080.63
965.42	1090.46
965.72	1083.90
966.02	1076.18
966.31	1064.48
966.61	1067.99
966.90	1060.03
967.20	1068.92
967.49	1078.05
967.79	1084.14
968.08	1095.14
968.38	1096.54
968.67	1099.35
968.97	1097.48
969.26	1101.46
969.56	1083.90
969.85	1072.67
970.15	1067.75
970.44	1059.33
970.74	1050.43
971.03	1064.24
971.32	1077.35
971.62	1080.63
971.91	1085.77
972.21	1092.09
972.50	1085.31
972.80	1076.88
973.09	1074.31
973.38	1067.99
973.68	1064.94
973.97	1066.11
974.27	1072.67
974.56	1069.16
974.85	1064.01
975.15	1071.50
975.44	1069.39
975.73	1062.14
976.03	1069.62
976.32	1081.56
976.61	1086.71
976.91	1086.48
977.20	1093.03
977.49	1087.65
977.79	1089.75
978.08	1084.60
978.37	1086.48
978.67	1085.77
978.96	1093.26
979.25	1088.58
979.55	1086.01
979.84	1080.16
980.13	1077.58
980.42	1073.84
980.72	1084.60
981.01	1088.35
981.30	1097.71
981.59	1102.86
981.89	1095.14
982.18	1088.58
982.47	1087.18
982.76	1081.80
983.06	1080.86
983.35	1091.16
983.64	1091.39
983.93	1097.24
984.22	1103.09
984.52	1100.05
984.81	1087.65
985.10	1090.92
985.39	1080.16
985.68	1064.71
985.97	1067.28
986.27	1074.31
986.56	1069.62
986.85	1067.28
987.14	1075.71
987.43	1073.14
987.72	1073.37
988.01	1067.05
988.31	1071.03
988.60	1068.45
988.89	1063.07
989.18	1066.35
989.47	1072.43
989.76	1070.33
990.05	1076.18
990.34	1080.86
990.63	1075.24
990.92	1058.86
991.21	1061.20
991.51	1057.45
991.80	1054.88
992.09	1056.75
992.38	1070.80
992.67	1067.28
992.96	1071.03
993.25	1075.94
993.54	1083.90
993.83	1086.01
994.12	1088.82
994.41	1085.77
994.70	1085.07
994.99	1076.18
995.28	1073.37
995.57	1067.99
995.86	1067.52
996.15	1077.35
996.44	1080.39
996.73	1080.63
997.02	1098.41
997.31	1097.01
997.59	1085.54
997.88	1089.05
998.17	1083.20
998.46	1075.94
998.75	1083.20
999.04	1075.94
999.33	1071.73
999.62	1075.94
999.91	1078.05
1000.20	1075.94
1000.49	1074.77
1000.77	1079.46
1001.06	1076.41
1001.35	1069.86
1001.64	1060.50
1001.93	1071.50
1002.22	1063.54
1002.51	1076.18
1002.79	1076.41
1003.08	1078.52
1003.37	1082.26
1003.66	1090.69
1003.95	1075.48
1004.23	1080.16
1004.52	1081.80
1004.81	1076.18
1005.10	1075.48
1005.39	1089.05
1005.67	1084.37
1005.96	1078.99
1006.25	1077.35
1006.54	1076.65
1006.83	1067.05
1007.11	1072.20
1007.40	1082.26
1007.69	1082.03
1007.97	1078.52
1008.26	1071.26
1008.55	1061.20
1008.84	1067.52
1009.12	1068.22
1009.41	1063.77
1009.70	1066.82
1009.98	1076.18
1010.27	1063.77
1010.56	1059.79
1010.85	1069.86
1011.13	1077.35
1011.42	1076.88
1011.71	1077.82
1011.99	1082.26
1012.28	1079.22
1012.56	1070.56
1012.85	1071.50
1013.14	1068.92
1013.42	1073.84
1013.71	1069.62
1014.00	1079.46
1014.28	1074.77
1014.57	1084.60
1014.85	1075.71
1015.14	1075.48
1015.43	1079.46
1015.71	1076.18
1016.00	1075.71
1016.28	1079.22
1016.57	1079.22
1016.85	1069.16
1017.14	1074.54
1017.43	1076.88
1017.71	1073.84
1018.00	1077.58
1018.28	1084.60
1018.57	1089.05
1018.85	1079.22
1019.14	1078.05
1019.42	1065.18
1019.71	1059.79
1019.99	1063.07
1020.28	1064.94
1020.56	1069.62
1020.85	1073.84
1021.13	1072.67
1021.42	1063.31
1021.70	1065.88
1021.99	1064.01
1022.27	1072.90
1022.55	1067.28
1022.84	1086.01
>>>>>End Processed Spectral Data<<<<<
