SpectraSuite Data File
++++++++++++++++++++++++++++++++++++
Date: Mon Aug 26 10:24:54 PDT 2019
User: corrico
Dark Spectrum Present: No
Reference Spectrum Present: No
Number of Sampled Component Spectra: 1
Spectrometers: USB2+H06089
Integration Time (usec): 10000 (USB2+H06089)
Spectra Averaged: 2 (USB2+H06089)
Boxcar Smoothing: 2 (USB2+H06089)
Correct for Electrical Dark: No (USB2+H06089)
Strobe/Lamp Enabled: No (USB2+H06089)
Correct for Detector Non-linearity: No (USB2+H06089)
Correct for Stray Light: No (USB2+H06089)
Number of Pixels in Processed Spectrum: 2048
>>>>>Begin Processed Spectral Data<<<<<
339.70	1060.26
340.07	1060.26
340.45	999.41
340.82	980.22
341.19	955.64
341.57	923.81
341.94	917.02
342.31	928.49
342.69	912.34
343.06	919.13
343.43	916.09
343.81	920.53
344.18	916.55
344.55	932.47
344.93	925.92
345.30	937.62
345.67	945.81
346.04	956.58
346.42	959.85
346.79	960.32
347.16	976.47
347.54	980.45
347.91	991.45
348.28	1004.56
348.65	1021.41
349.03	1019.30
349.40	1022.35
349.77	1024.22
350.14	1029.84
350.52	1035.92
350.89	1050.43
351.26	1071.97
351.63	1080.63
352.01	1082.50
352.38	1082.97
352.75	1080.16
353.12	1077.35
353.50	1073.84
353.87	1072.67
354.24	1076.18
354.61	1078.75
354.98	1082.26
355.36	1092.33
355.73	1098.41
356.10	1105.67
356.47	1109.65
356.84	1104.50
357.22	1098.18
357.59	1093.50
357.96	1087.18
358.33	1082.03
358.70	1096.78
359.08	1102.16
359.45	1109.41
359.82	1099.35
360.19	1107.54
360.56	1097.24
360.94	1096.78
361.31	1086.24
361.68	1096.07
362.05	1093.73
362.42	1093.50
362.79	1092.33
363.16	1092.33
363.54	1083.67
363.91	1077.35
364.28	1069.16
364.65	1069.39
365.02	1075.01
365.39	1082.03
365.76	1081.09
366.14	1079.69
366.51	1077.35
366.88	1075.24
367.25	1077.58
367.62	1071.03
367.99	1084.60
368.36	1084.14
368.73	1081.33
369.10	1078.28
369.48	1090.46
369.85	1082.03
370.22	1078.75
370.59	1085.54
370.96	1088.12
371.33	1085.07
371.70	1084.84
372.07	1089.29
372.44	1074.77
372.81	1077.82
373.18	1071.97
373.55	1073.60
373.93	1075.48
374.30	1083.20
374.67	1075.24
375.04	1073.84
375.41	1078.52
375.78	1075.48
376.15	1072.67
376.52	1067.28
376.89	1081.80
377.26	1076.41
377.63	1079.69
378.00	1082.03
378.37	1086.94
378.74	1091.39
379.11	1094.67
379.48	1090.46
379.85	1099.35
380.22	1101.92
380.59	1089.99
380.96	1089.99
381.33	1090.22
381.70	1092.56
382.07	1096.78
382.44	1096.54
382.81	1105.20
383.18	1099.82
383.55	1091.86
383.92	1100.29
384.29	1100.29
384.66	1096.07
385.03	1096.31
385.40	1096.78
385.77	1091.86
386.14	1091.86
386.51	1097.01
386.88	1106.61
387.25	1111.75
387.62	1103.09
387.99	1110.58
388.36	1099.35
388.73	1095.84
389.10	1093.97
389.46	1095.14
389.83	1090.46
390.20	1090.92
390.57	1091.16
390.94	1082.97
391.31	1087.18
391.68	1088.12
392.05	1089.05
392.42	1094.43
392.79	1103.09
393.16	1107.31
393.53	1103.33
393.89	1112.69
394.26	1115.03
394.63	1113.39
395.00	1116.44
395.37	1120.65
395.74	1112.46
396.11	1115.03
396.48	1115.73
396.84	1107.31
397.21	1104.73
397.58	1106.14
397.95	1105.67
398.32	1095.60
398.69	1101.69
399.06	1109.88
399.42	1112.92
399.79	1112.92
400.16	1128.84
400.53	1144.29
400.90	1137.97
401.27	1142.18
401.64	1152.95
402.00	1159.03
402.37	1151.54
402.74	1171.44
403.11	1174.01
403.48	1170.74
403.84	1182.20
404.21	1195.31
404.58	1195.55
404.95	1206.55
405.32	1232.06
405.68	1234.87
406.05	1243.76
406.42	1249.61
406.79	1263.89
407.16	1257.34
407.52	1269.04
407.89	1275.36
408.26	1293.85
408.63	1312.10
408.99	1327.08
409.36	1348.15
409.73	1372.02
410.10	1405.96
410.47	1424.92
410.83	1456.05
411.20	1483.67
411.57	1510.58
411.94	1554.58
412.30	1597.88
412.67	1645.86
413.04	1691.27
413.40	1748.85
413.77	1790.04
414.14	1847.62
414.51	1898.17
414.87	1953.65
415.24	2007.95
415.61	2073.25
415.97	2136.21
416.34	2223.51
416.71	2311.75
417.08	2409.35
417.44	2499.22
417.81	2600.57
418.18	2706.83
418.54	2830.88
418.91	2935.03
419.28	3054.63
419.64	3184.77
420.01	3331.28
420.38	3449.72
420.74	3612.85
421.11	3799.86
421.48	3962.76
421.84	4130.11
422.21	4331.16
422.58	4533.15
422.94	4749.65
423.31	4980.66
423.68	5217.99
424.04	5472.87
424.41	5729.40
424.77	5953.39
425.14	6231.91
425.51	6518.63
425.87	6844.66
426.24	7171.17
426.61	7552.91
426.97	7959.46
427.34	8361.80
427.70	8774.90
428.07	9177.71
428.44	9600.64
428.80	10050.73
429.17	10515.32
429.53	10985.77
429.90	11543.76
430.27	12027.31
430.63	12521.16
431.00	13125.72
431.36	13744.33
431.73	14300.21
432.09	14931.45
432.46	15521.50
432.83	16018.86
433.19	16487.90
433.56	17057.59
433.92	17657.24
434.29	18215.22
434.65	18824.69
435.02	19380.57
435.38	19958.92
435.75	20383.02
436.11	20952.48
436.48	21388.05
436.84	21919.35
437.21	22334.09
437.57	22742.99
437.94	23073.00
438.30	23427.59
438.67	23624.43
439.03	23795.52
439.40	23931.98
439.76	23855.44
440.13	23751.99
440.49	23708.46
440.86	23440.00
441.22	23195.65
441.59	22852.29
441.95	22484.12
442.32	22004.08
442.68	21644.10
443.05	21212.28
443.41	20803.15
443.78	20274.89
444.14	19757.87
444.51	19194.73
444.87	18783.50
445.24	18425.17
445.60	18073.85
445.96	17592.64
446.33	17194.75
446.69	16624.36
447.06	16137.53
447.42	15661.93
447.79	15271.29
448.15	14907.11
448.51	14506.17
448.88	14163.52
449.24	13745.26
449.61	13475.87
449.97	13176.05
450.33	12908.99
450.70	12496.59
451.06	12232.81
451.43	11832.58
451.79	11458.09
452.15	11165.99
452.52	10904.32
452.88	10688.99
453.24	10491.69
453.61	10269.80
453.97	10021.00
454.34	9774.31
454.70	9503.28
455.06	9253.78
455.43	8968.46
455.79	8660.45
456.15	8425.93
456.52	8113.47
456.88	7861.39
457.24	7597.61
457.61	7396.56
457.97	7161.10
458.33	6997.27
458.70	6790.60
459.06	6581.12
459.42	6380.07
459.79	6165.67
460.15	5952.45
460.51	5758.42
460.88	5613.54
461.24	5451.81
461.60	5310.68
461.96	5188.97
462.33	5042.45
462.69	4893.12
463.05	4764.39
463.42	4665.16
463.78	4533.85
464.14	4418.70
464.50	4327.42
464.87	4236.14
465.23	4124.73
465.59	4034.62
465.95	3952.93
466.32	3864.69
466.68	3781.60
467.04	3697.34
467.40	3624.32
467.77	3572.59
468.13	3499.10
468.49	3425.14
468.85	3368.97
469.22	3304.13
469.58	3221.98
469.94	3159.02
470.30	3111.74
470.66	3063.53
471.03	3000.33
471.39	2951.65
471.75	2909.29
472.11	2851.24
472.47	2788.51
472.84	2737.72
473.20	2697.00
473.56	2656.98
473.92	2590.50
474.28	2544.16
474.65	2524.27
475.01	2470.67
475.37	2417.31
475.73	2395.07
476.09	2369.56
476.45	2315.73
476.81	2304.96
477.18	2280.38
477.54	2260.96
477.90	2227.96
478.26	2200.57
478.62	2159.38
478.98	2140.65
479.34	2106.48
479.71	2087.52
480.07	2069.50
480.43	2043.29
480.79	1998.35
481.15	1980.09
481.51	1959.73
481.87	1948.50
482.23	1934.22
482.59	1941.47
482.96	1926.03
483.32	1912.69
483.68	1897.00
484.04	1878.98
484.40	1856.75
484.76	1836.62
485.12	1812.74
485.48	1790.74
485.84	1764.06
486.20	1735.27
486.56	1720.76
486.92	1702.97
487.28	1685.89
487.64	1680.50
488.00	1675.12
488.37	1658.27
488.73	1632.99
489.09	1614.97
489.45	1596.48
489.81	1580.10
490.17	1560.90
490.53	1555.99
490.89	1537.73
491.25	1520.18
491.61	1498.88
491.97	1493.50
492.33	1483.90
492.69	1488.35
493.05	1481.09
493.41	1470.79
493.77	1454.88
494.13	1451.37
494.49	1435.22
494.85	1428.19
495.21	1422.81
495.57	1417.43
495.93	1402.92
496.29	1389.34
496.64	1375.77
497.00	1364.77
497.36	1348.38
497.72	1340.42
498.08	1331.30
498.44	1326.62
498.80	1321.93
499.16	1324.98
499.52	1309.30
499.88	1309.53
500.24	1305.55
500.60	1300.40
500.96	1292.68
501.32	1299.23
501.68	1294.32
502.03	1288.46
502.39	1270.44
502.75	1260.14
503.11	1253.82
503.47	1244.70
503.83	1240.48
504.19	1241.89
504.55	1246.34
504.91	1240.95
505.26	1238.61
505.62	1224.33
505.98	1219.42
506.34	1214.27
506.70	1197.18
507.06	1183.84
507.42	1191.10
507.78	1198.35
508.13	1193.44
508.49	1204.91
508.85	1224.57
509.21	1223.40
509.57	1219.89
509.93	1212.63
510.28	1202.57
510.64	1186.89
511.00	1186.42
511.36	1180.57
511.72	1173.54
512.07	1177.29
512.43	1171.91
512.79	1159.50
513.15	1166.52
513.51	1170.50
513.86	1177.99
514.22	1183.61
514.58	1190.40
514.94	1179.86
515.30	1178.93
515.65	1159.50
516.01	1148.97
516.37	1141.48
516.73	1143.82
517.08	1147.80
517.44	1155.99
517.80	1151.08
518.16	1157.86
518.51	1150.84
518.87	1148.03
519.23	1137.27
519.59	1143.12
519.94	1133.52
520.30	1135.39
520.66	1128.84
521.01	1125.10
521.37	1125.10
521.73	1130.95
522.09	1135.86
522.44	1131.88
522.80	1139.14
523.16	1140.07
523.51	1130.95
523.87	1132.59
524.23	1133.99
524.58	1126.97
524.94	1121.58
525.30	1133.29
525.65	1124.39
526.01	1119.71
526.37	1126.50
526.72	1125.33
527.08	1117.84
527.44	1123.93
527.79	1131.18
528.15	1123.93
528.51	1130.48
528.86	1144.52
529.22	1139.14
529.58	1132.59
529.93	1143.35
530.29	1140.31
530.65	1117.84
531.00	1114.80
531.36	1125.56
531.71	1114.56
532.07	1112.22
532.43	1124.63
532.78	1117.61
533.14	1101.69
533.49	1097.95
533.85	1095.84
534.21	1090.46
534.56	1099.12
534.92	1114.56
535.27	1120.18
535.63	1120.18
535.98	1120.65
536.34	1111.75
536.69	1093.50
537.05	1087.18
537.41	1082.03
537.76	1084.14
538.12	1093.03
538.47	1100.99
538.83	1105.67
539.18	1109.88
539.54	1115.73
539.89	1120.65
540.25	1111.99
540.60	1112.92
540.96	1111.99
541.31	1105.67
541.67	1102.63
542.02	1120.65
542.38	1113.63
542.73	1110.35
543.09	1104.50
543.44	1089.99
543.80	1081.33
544.15	1090.69
544.51	1091.39
544.86	1090.92
545.22	1106.61
545.57	1104.50
545.93	1103.56
546.28	1107.78
546.64	1102.16
546.99	1099.35
547.35	1101.46
547.70	1100.52
548.05	1104.26
548.41	1115.03
548.76	1123.46
549.12	1126.03
549.47	1132.12
549.83	1120.65
550.18	1115.73
550.53	1104.50
550.89	1096.78
551.24	1085.54
551.60	1085.07
551.95	1087.65
552.30	1087.41
552.66	1088.82
553.01	1098.41
553.37	1109.65
553.72	1104.73
554.07	1095.84
554.43	1092.33
554.78	1081.80
555.13	1076.88
555.49	1085.07
555.84	1093.03
556.19	1097.24
556.55	1103.09
556.90	1098.65
557.26	1084.14
557.61	1088.12
557.96	1091.16
558.32	1086.24
558.67	1094.43
559.02	1097.24
559.37	1089.99
559.73	1093.50
560.08	1100.29
560.43	1092.33
560.79	1104.26
561.14	1112.22
561.49	1108.71
561.85	1110.35
562.20	1114.10
562.55	1112.46
562.90	1112.69
563.26	1111.99
563.61	1111.52
563.96	1110.82
564.32	1102.63
564.67	1096.54
565.02	1104.50
565.37	1100.52
565.73	1103.80
566.08	1100.29
566.43	1105.44
566.78	1096.31
567.14	1102.16
567.49	1110.58
567.84	1117.37
568.19	1116.44
568.54	1117.14
568.90	1104.73
569.25	1101.22
569.60	1102.86
569.95	1100.99
570.31	1097.48
570.66	1099.58
571.01	1092.33
571.36	1096.54
571.71	1104.26
572.06	1100.29
572.42	1098.65
572.77	1095.60
573.12	1090.22
573.47	1085.31
573.82	1089.29
574.18	1090.92
574.53	1095.84
574.88	1093.26
575.23	1092.09
575.58	1100.52
575.93	1103.33
576.28	1096.07
576.64	1099.58
576.99	1089.75
577.34	1085.77
577.69	1084.84
578.04	1091.16
578.39	1086.48
578.74	1084.60
579.09	1082.97
579.44	1081.80
579.80	1093.73
580.15	1098.18
580.50	1108.71
580.85	1108.01
581.20	1117.14
581.55	1104.97
581.90	1099.35
582.25	1101.46
582.60	1102.63
582.95	1094.90
583.30	1098.65
583.65	1098.65
584.00	1091.16
584.35	1099.58
584.71	1098.88
585.06	1096.78
585.41	1094.20
585.76	1097.24
586.11	1094.67
586.46	1098.41
586.81	1100.05
587.16	1108.01
587.51	1112.22
587.86	1107.54
588.21	1106.37
588.56	1098.41
588.91	1086.94
589.26	1083.43
589.61	1086.24
589.96	1082.73
590.31	1086.71
590.66	1097.71
591.01	1089.05
591.36	1084.60
591.71	1097.95
592.06	1096.78
592.41	1095.60
592.76	1107.07
593.10	1108.95
593.45	1092.80
593.80	1092.56
594.15	1087.41
594.50	1086.24
594.85	1089.52
595.20	1094.90
595.55	1092.09
595.90	1093.50
596.25	1088.82
596.60	1075.24
596.95	1072.43
597.30	1064.48
597.64	1118.54
597.99	1118.31
598.34	1116.90
598.69	1114.56
599.04	1132.35
599.39	1083.67
599.74	1082.03
600.09	1091.39
600.44	1101.92
600.78	1094.43
601.13	1087.41
601.48	1092.56
601.83	1094.20
602.18	1090.22
602.53	1094.67
602.88	1104.97
603.22	1101.69
603.57	1093.26
603.92	1085.54
604.27	1081.33
604.62	1075.71
604.97	1080.63
605.31	1080.63
605.66	1076.18
606.01	1064.71
606.36	1063.54
606.71	1056.75
607.05	1064.48
607.40	1075.48
607.75	1098.18
608.10	1091.39
608.44	1098.88
608.79	1106.37
609.14	1107.54
609.49	1093.03
609.84	1104.50
610.18	1103.33
610.53	1095.14
610.88	1090.92
611.23	1106.37
611.57	1101.69
611.92	1094.67
612.27	1098.41
612.62	1096.54
612.96	1088.58
613.31	1095.14
613.66	1093.03
614.00	1090.46
614.35	1091.63
614.70	1082.26
615.05	1072.20
615.39	1080.86
615.74	1077.58
616.09	1086.24
616.43	1089.75
616.78	1094.90
617.13	1095.37
617.47	1089.52
617.82	1076.88
618.17	1084.84
618.51	1097.48
618.86	1094.43
619.21	1104.26
619.55	1110.58
619.90	1104.03
620.25	1099.82
620.59	1110.82
620.94	1108.01
621.29	1113.63
621.63	1124.39
621.98	1104.26
622.32	1097.24
622.67	1082.97
623.02	1079.92
623.36	1060.73
623.71	1073.37
624.05	1068.22
624.40	1086.48
624.75	1087.88
625.09	1102.16
625.44	1095.14
625.78	1095.60
626.13	1091.86
626.48	1087.18
626.82	1083.90
627.17	1082.26
627.51	1086.01
627.86	1087.41
628.20	1090.46
628.55	1086.01
628.89	1097.48
629.24	1092.09
629.58	1078.05
629.93	1076.18
630.28	1071.03
630.62	1075.71
630.97	1081.09
631.31	1101.22
631.66	1099.12
632.00	1111.52
632.35	1105.90
632.69	1105.20
633.04	1100.75
633.38	1101.92
633.73	1095.84
634.07	1090.22
634.42	1097.24
634.76	1081.56
635.11	1080.63
635.45	1085.77
635.79	1091.16
636.14	1072.67
636.48	1087.88
636.83	1086.94
637.17	1076.88
637.52	1068.69
637.86	1074.77
638.21	1070.56
638.55	1066.82
638.89	1074.54
639.24	1081.56
639.58	1086.94
639.93	1096.54
640.27	1103.33
640.61	1098.41
640.96	1096.78
641.30	1086.71
641.65	1074.31
641.99	1068.45
642.33	1078.52
642.68	1077.82
643.02	1088.58
643.37	1086.71
643.71	1097.24
644.05	1086.01
644.40	1082.50
644.74	1075.71
645.08	1080.16
645.43	1076.65
645.77	1084.14
646.11	1090.92
646.46	1096.07
646.80	1101.46
647.14	1093.50
647.49	1088.12
647.83	1083.43
648.17	1089.75
648.52	1089.99
648.86	1095.84
649.20	1095.37
649.55	1089.52
649.89	1075.24
650.23	1071.97
650.57	1071.50
650.92	1072.67
651.26	1086.94
651.60	1091.63
651.95	1092.33
652.29	1094.43
652.63	1105.67
652.97	1091.86
653.32	1103.09
653.66	1103.56
654.00	1105.20
654.34	1090.92
654.69	1107.07
655.03	1095.60
655.37	1087.18
655.71	1078.99
656.05	1084.37
656.40	1073.14
656.74	1074.54
657.08	1080.39
657.42	1082.26
657.76	1083.90
658.11	1090.69
658.45	1094.67
658.79	1097.48
659.13	1095.14
659.47	1089.29
659.82	1085.31
660.16	1085.07
660.50	1083.20
660.84	1082.03
661.18	1087.18
661.52	1078.05
661.87	1074.31
662.21	1073.37
662.55	1079.22
662.89	1079.22
663.23	1079.92
663.57	1078.52
663.91	1074.77
664.25	1071.73
664.60	1065.18
664.94	1074.07
665.28	1074.54
665.62	1072.43
665.96	1081.80
666.30	1089.99
666.64	1095.37
666.98	1086.01
667.32	1095.37
667.66	1094.20
668.01	1080.86
668.35	1072.67
668.69	1094.90
669.03	1093.73
669.37	1087.88
669.71	1096.78
670.05	1094.67
670.39	1084.14
670.73	1094.20
671.07	1091.63
671.41	1089.75
671.75	1093.26
672.09	1093.97
672.43	1087.65
672.77	1077.58
673.11	1086.01
673.45	1093.50
673.79	1104.03
674.13	1097.48
674.47	1105.20
674.81	1091.86
675.15	1079.69
675.49	1069.86
675.83	1070.09
676.17	1084.84
676.51	1089.99
676.85	1096.07
677.19	1102.39
677.53	1104.50
677.87	1097.95
678.21	1105.44
678.55	1104.03
678.89	1096.78
679.23	1099.12
679.57	1098.88
679.90	1091.63
680.24	1087.41
680.58	1082.97
680.92	1079.46
681.26	1069.39
681.60	1074.54
681.94	1083.43
682.28	1099.35
682.62	1100.29
682.96	1108.01
683.29	1102.39
683.63	1097.24
683.97	1087.88
684.31	1079.69
684.65	1083.90
684.99	1084.37
685.33	1090.46
685.67	1101.22
686.00	1113.63
686.34	1114.09
686.68	1124.63
687.02	1118.78
687.36	1106.37
687.70	1097.71
688.03	1097.01
688.37	1091.86
688.71	1088.35
689.05	1088.12
689.39	1094.90
689.72	1103.09
690.06	1093.26
690.40	1107.54
690.74	1103.80
691.08	1096.07
691.41	1081.09
691.75	1088.58
692.09	1073.60
692.43	1073.14
692.76	1081.80
693.10	1085.07
693.44	1084.60
693.78	1093.73
694.11	1091.63
694.45	1080.39
694.79	1078.99
695.13	1077.82
695.46	1077.11
695.80	1088.58
696.14	1092.80
696.48	1090.92
696.81	1091.16
697.15	1083.67
697.49	1079.46
697.82	1085.07
698.16	1086.01
698.50	1087.18
698.83	1083.43
699.17	1085.07
699.51	1083.20
699.84	1076.88
700.18	1081.09
700.52	1096.31
700.85	1087.41
701.19	1075.71
701.53	1089.29
701.86	1081.80
702.20	1066.82
702.54	1071.97
702.87	1086.71
703.21	1086.01
703.55	1085.31
703.88	1093.26
704.22	1096.78
704.55	1090.46
704.89	1079.46
705.23	1080.16
705.56	1081.80
705.90	1077.35
706.23	1084.60
706.57	1097.48
706.91	1091.63
707.24	1085.07
707.58	1090.22
707.91	1081.33
708.25	1074.54
708.58	1084.84
708.92	1093.73
709.26	1095.14
709.59	1109.88
709.93	1105.44
710.26	1106.84
710.60	1100.52
710.93	1099.35
711.27	1081.56
711.60	1077.58
711.94	1074.77
712.27	1075.24
712.61	1069.16
712.94	1069.86
713.28	1086.48
713.61	1085.31
713.95	1087.41
714.28	1086.01
714.62	1092.09
714.95	1095.14
715.29	1097.71
715.62	1089.75
715.96	1098.41
716.29	1097.95
716.63	1084.37
716.96	1083.67
717.29	1091.16
717.63	1070.33
717.96	1063.77
718.30	1061.90
718.63	1058.16
718.97	1054.88
719.30	1071.50
719.63	1079.22
719.97	1082.97
720.30	1091.16
720.64	1100.52
720.97	1096.78
721.30	1092.09
721.64	1092.56
721.97	1086.24
722.31	1078.05
722.64	1085.07
722.97	1089.75
723.31	1082.50
723.64	1081.33
723.97	1081.09
724.31	1075.24
724.64	1081.09
724.98	1088.35
725.31	1092.56
725.64	1088.58
725.98	1089.05
726.31	1082.73
726.64	1075.01
726.97	1071.97
727.31	1077.35
727.64	1075.24
727.97	1072.67
728.31	1077.82
728.64	1077.82
728.97	1080.63
729.31	1084.37
729.64	1088.82
729.97	1089.05
730.30	1085.77
730.64	1083.90
730.97	1074.54
731.30	1072.90
731.63	1079.92
731.97	1085.77
732.30	1082.50
732.63	1093.03
732.96	1082.26
733.30	1081.33
733.63	1086.48
733.96	1086.01
734.29	1087.18
734.63	1101.46
734.96	1089.29
735.29	1080.39
735.62	1089.52
735.95	1080.39
736.29	1081.09
736.62	1090.46
736.95	1092.33
737.28	1089.29
737.61	1089.05
737.94	1083.67
738.28	1087.88
738.61	1082.26
738.94	1074.77
739.27	1073.60
739.60	1069.86
739.93	1061.67
740.27	1070.80
740.60	1076.65
740.93	1084.84
741.26	1094.67
741.59	1103.80
741.92	1109.18
742.25	1099.58
742.58	1094.43
742.91	1088.82
743.25	1085.07
743.58	1071.97
743.91	1081.80
744.24	1082.26
744.57	1085.54
744.90	1092.09
745.23	1101.22
745.56	1100.29
745.89	1099.82
746.22	1090.22
746.55	1075.01
746.88	1072.90
747.21	1070.09
747.54	1066.58
747.87	1072.43
748.20	1080.39
748.53	1081.09
748.87	1078.05
749.20	1084.14
749.53	1091.16
749.86	1094.90
750.19	1089.29
750.52	1083.43
750.85	1082.97
751.18	1074.54
751.51	1075.48
751.84	1080.86
752.16	1084.37
752.49	1086.94
752.82	1089.05
753.15	1089.99
753.48	1089.29
753.81	1103.80
754.14	1101.22
754.47	1107.54
754.80	1102.63
755.13	1096.78
755.46	1087.41
755.79	1067.75
756.12	1058.39
756.45	1058.86
756.78	1065.41
757.11	1063.31
757.43	1082.03
757.76	1084.84
758.09	1085.54
758.42	1089.05
758.75	1092.80
759.08	1091.39
759.41	1088.58
759.74	1075.71
760.07	1069.39
760.39	1065.88
760.72	1067.05
761.05	1072.20
761.38	1071.73
761.71	1069.62
762.04	1066.11
762.36	1069.62
762.69	1060.73
763.02	1076.88
763.35	1083.43
763.68	1092.09
764.01	1086.48
764.33	1094.90
764.66	1086.24
764.99	1073.84
765.32	1067.52
765.65	1067.05
765.97	1063.31
766.30	1071.26
766.63	1089.29
766.96	1091.63
767.28	1092.33
767.61	1087.41
767.94	1077.58
768.27	1055.35
768.59	1055.11
768.92	1057.92
769.25	1061.20
769.58	1070.80
769.90	1075.71
770.23	1072.67
770.56	1079.92
770.89	1087.65
771.21	1093.26
771.54	1105.67
771.87	1104.03
772.19	1098.41
772.52	1094.20
772.85	1079.92
773.17	1072.90
773.50	1077.58
773.83	1081.56
774.15	1076.41
774.48	1083.43
774.81	1087.41
775.13	1086.24
775.46	1076.88
775.79	1084.84
776.11	1079.46
776.44	1077.82
776.77	1084.84
777.09	1086.48
777.42	1083.43
777.74	1082.26
778.07	1083.43
778.40	1069.62
778.72	1073.60
779.05	1077.11
779.37	1073.14
779.70	1067.75
780.03	1083.43
780.35	1080.39
780.68	1070.56
781.00	1063.77
781.33	1063.77
781.65	1059.56
781.98	1053.94
782.31	1048.56
782.63	1063.54
782.96	1066.58
783.28	1070.09
783.61	1077.58
783.93	1082.26
784.26	1079.22
784.58	1077.58
784.91	1067.28
785.23	1064.01
785.56	1074.54
785.88	1078.52
786.21	1080.16
786.53	1087.41
786.86	1086.48
787.18	1070.56
787.51	1072.90
787.83	1077.58
788.16	1074.31
788.48	1080.63
788.81	1083.43
789.13	1073.84
789.46	1072.20
789.78	1069.62
790.10	1072.67
790.43	1081.80
790.75	1080.63
791.08	1080.16
791.40	1088.82
791.73	1083.20
792.05	1079.22
792.37	1082.97
792.70	1073.37
793.02	1075.48
793.35	1074.54
793.67	1089.05
793.99	1093.26
794.32	1096.78
794.64	1085.54
794.96	1088.12
795.29	1067.75
795.61	1061.43
795.93	1064.71
796.26	1072.20
796.58	1066.35
796.91	1071.03
797.23	1071.97
797.55	1072.90
797.87	1067.99
798.20	1075.24
798.52	1085.31
798.84	1094.43
799.17	1100.29
799.49	1102.16
799.81	1093.26
800.14	1093.26
800.46	1081.09
800.78	1071.50
801.10	1066.35
801.43	1074.31
801.75	1077.35
802.07	1073.14
802.40	1078.75
802.72	1082.97
803.04	1083.43
803.36	1084.14
803.69	1090.46
804.01	1082.73
804.33	1081.56
804.65	1083.43
804.97	1067.05
805.30	1072.20
805.62	1069.16
805.94	1064.71
806.26	1059.33
806.58	1075.01
806.91	1072.67
807.23	1079.92
807.55	1086.24
807.87	1084.37
808.19	1082.73
808.52	1085.54
808.84	1082.03
809.16	1083.20
809.48	1084.14
809.80	1081.33
810.12	1080.63
810.44	1083.43
810.77	1067.75
811.09	1069.16
811.41	1069.16
811.73	1066.35
812.05	1061.43
812.37	1078.75
812.69	1083.43
813.01	1074.07
813.33	1083.20
813.66	1087.41
813.98	1093.73
814.30	1096.31
814.62	1095.37
814.94	1091.16
815.26	1086.01
815.58	1074.07
815.90	1061.20
816.22	1065.18
816.54	1067.75
816.86	1071.26
817.18	1072.67
817.50	1078.05
817.82	1082.97
818.14	1073.14
818.46	1081.80
818.78	1085.07
819.10	1083.43
819.42	1083.43
819.74	1085.54
820.06	1072.90
820.38	1065.18
820.70	1065.88
821.02	1063.31
821.34	1069.62
821.66	1077.82
821.98	1076.41
822.30	1088.35
822.62	1085.31
822.94	1079.22
823.26	1084.60
823.58	1093.97
823.90	1089.52
824.22	1098.65
824.54	1092.09
824.86	1086.71
825.18	1080.86
825.50	1067.75
825.81	1063.07
826.13	1070.09
826.45	1061.20
826.77	1072.43
827.09	1077.35
827.41	1068.92
827.73	1074.31
828.05	1082.73
828.36	1069.86
828.68	1068.22
829.00	1064.48
829.32	1058.86
829.64	1052.07
829.96	1061.67
830.28	1069.16
830.59	1081.33
830.91	1073.84
831.23	1075.24
831.55	1067.75
831.87	1061.67
832.19	1060.96
832.50	1069.39
832.82	1074.77
833.14	1078.28
833.46	1081.80
833.78	1090.22
834.09	1093.26
834.41	1092.56
834.73	1088.12
835.05	1085.07
835.36	1074.31
835.68	1075.01
836.00	1073.60
836.32	1084.84
836.63	1088.35
836.95	1094.20
837.27	1084.37
837.59	1090.69
837.90	1090.92
838.22	1094.20
838.54	1096.07
838.85	1100.99
839.17	1100.05
839.49	1097.01
839.80	1092.56
840.12	1085.07
840.44	1083.67
840.76	1078.28
841.07	1078.28
841.39	1077.58
841.71	1085.07
842.02	1091.63
842.34	1089.99
842.65	1083.43
842.97	1079.92
843.29	1078.05
843.60	1069.16
843.92	1068.22
844.24	1071.03
844.55	1077.11
844.87	1077.82
845.18	1082.26
845.50	1078.28
845.82	1081.33
846.13	1077.58
846.45	1068.92
846.76	1074.31
847.08	1081.09
847.40	1079.69
847.71	1084.60
848.03	1087.41
848.34	1081.09
848.66	1076.41
848.97	1066.58
849.29	1057.22
849.60	1056.05
849.92	1062.60
850.24	1067.75
850.55	1072.90
850.87	1085.77
851.18	1079.22
851.50	1078.05
851.81	1085.31
852.13	1090.69
852.44	1088.12
852.76	1097.24
853.07	1089.99
853.39	1083.43
853.70	1083.90
854.01	1084.60
854.33	1081.09
854.64	1095.60
854.96	1083.20
855.27	1079.69
855.59	1072.43
855.90	1081.33
856.22	1064.94
856.53	1069.62
856.84	1063.31
857.16	1052.30
857.47	1042.01
857.79	1039.20
858.10	1045.75
858.41	1047.86
858.73	1059.33
859.04	1058.39
859.36	1063.54
859.67	1062.37
859.98	1067.28
860.30	1070.09
860.61	1072.90
860.92	1065.65
861.24	1063.54
861.55	1066.58
861.87	1066.11
862.18	1072.20
862.49	1076.88
862.81	1082.50
863.12	1077.58
863.43	1074.31
863.74	1076.88
864.06	1082.73
864.37	1085.54
864.68	1082.26
865.00	1086.48
865.31	1078.99
865.62	1090.46
865.94	1084.14
866.25	1086.24
866.56	1078.75
866.87	1081.33
867.19	1070.09
867.50	1073.60
867.81	1071.97
868.12	1075.24
868.44	1070.33
868.75	1070.80
869.06	1066.11
869.37	1063.77
869.68	1070.56
870.00	1074.07
870.31	1077.58
870.62	1080.39
870.93	1091.39
871.24	1086.24
871.56	1090.22
871.87	1082.50
872.18	1080.16
872.49	1078.75
872.80	1074.31
873.12	1071.26
873.43	1074.07
873.74	1087.88
874.05	1087.41
874.36	1082.03
874.67	1079.92
874.98	1081.09
875.29	1062.84
875.61	1054.65
875.92	1059.79
876.23	1057.22
876.54	1056.05
876.85	1062.14
877.16	1061.90
877.47	1065.88
877.78	1069.86
878.09	1074.07
878.40	1083.90
878.72	1088.35
879.03	1092.33
879.34	1090.46
879.65	1080.86
879.96	1069.86
880.27	1067.99
880.58	1067.05
880.89	1072.20
881.20	1068.69
881.51	1076.88
881.82	1078.52
882.13	1073.14
882.44	1072.43
882.75	1082.26
883.06	1087.18
883.37	1095.37
883.68	1098.88
883.99	1094.20
884.30	1096.78
884.61	1084.84
884.92	1075.48
885.23	1073.14
885.54	1071.97
885.85	1069.16
886.16	1076.18
886.47	1080.16
886.78	1084.37
887.08	1082.73
887.39	1092.09
887.70	1090.92
888.01	1084.14
888.32	1088.12
888.63	1094.20
888.94	1084.14
889.25	1076.18
889.56	1083.67
889.87	1078.28
890.17	1075.71
890.48	1075.01
890.79	1079.22
891.10	1075.94
891.41	1077.82
891.72	1078.99
892.03	1078.75
892.34	1070.56
892.64	1071.97
892.95	1065.18
893.26	1069.39
893.57	1073.37
893.88	1086.01
894.18	1083.90
894.49	1086.01
894.80	1088.12
895.11	1089.99
895.42	1083.43
895.72	1082.97
896.03	1084.14
896.34	1073.14
896.65	1071.26
896.96	1071.26
897.26	1072.90
897.57	1075.01
897.88	1076.18
898.19	1072.67
898.49	1074.77
898.80	1076.18
899.11	1073.60
899.41	1076.18
899.72	1074.07
900.03	1072.67
900.34	1076.88
900.64	1084.84
900.95	1095.14
901.26	1101.69
901.56	1106.37
901.87	1095.60
902.18	1099.82
902.48	1086.94
902.79	1084.14
903.10	1081.56
903.40	1084.37
903.71	1068.69
904.02	1075.48
904.32	1074.54
904.63	1076.41
904.94	1079.69
905.24	1087.41
905.55	1083.43
905.85	1076.18
906.16	1078.05
906.47	1079.46
906.77	1077.11
907.08	1081.09
907.38	1082.97
907.69	1075.01
908.00	1067.99
908.30	1074.54
908.61	1070.80
908.91	1078.99
909.22	1082.03
909.52	1083.43
909.83	1083.43
910.14	1086.48
910.44	1088.82
910.75	1078.75
911.05	1091.16
911.36	1078.75
911.66	1072.20
911.97	1076.18
912.27	1083.67
912.58	1074.77
912.88	1074.54
913.19	1079.22
913.49	1073.60
913.80	1073.60
914.10	1069.62
914.41	1081.33
914.71	1081.56
915.01	1080.39
915.32	1091.16
915.62	1098.18
915.93	1095.60
916.23	1097.48
916.54	1094.20
916.84	1089.05
917.15	1081.33
917.45	1081.80
917.75	1079.22
918.06	1076.41
918.36	1077.58
918.67	1080.63
918.97	1079.22
919.27	1078.75
919.58	1077.35
919.88	1068.69
920.18	1073.60
920.49	1082.50
920.79	1083.67
921.10	1088.82
921.40	1091.39
921.70	1086.94
922.01	1074.77
922.31	1076.65
922.61	1076.41
922.92	1082.50
923.22	1086.48
923.52	1087.65
923.82	1079.69
924.13	1080.16
924.43	1077.35
924.73	1079.22
925.04	1079.92
925.34	1091.63
925.64	1092.09
925.94	1089.75
926.25	1075.01
926.55	1074.31
926.85	1068.22
927.15	1071.50
927.46	1076.41
927.76	1077.82
928.06	1084.60
928.36	1090.46
928.67	1089.05
928.97	1086.94
929.27	1095.14
929.57	1086.01
929.87	1076.18
930.18	1074.07
930.48	1073.60
930.78	1075.94
931.08	1086.94
931.38	1078.75
931.69	1068.45
931.99	1068.92
932.29	1063.54
932.59	1056.05
932.89	1071.03
933.19	1083.90
933.49	1081.33
933.80	1085.07
934.10	1079.92
934.40	1077.58
934.70	1070.09
935.00	1073.37
935.30	1077.58
935.60	1090.92
935.90	1091.86
936.20	1101.22
936.50	1097.71
936.81	1089.29
937.11	1079.92
937.41	1075.71
937.71	1076.65
938.01	1076.18
938.31	1075.01
938.61	1072.67
938.91	1076.41
939.21	1061.20
939.51	1049.96
939.81	1051.37
940.11	1059.09
940.41	1054.65
940.71	1065.18
941.01	1075.01
941.31	1082.26
941.61	1081.09
941.91	1091.39
942.21	1091.16
942.51	1093.73
942.81	1097.71
943.11	1100.75
943.41	1087.41
943.71	1081.80
944.01	1081.09
944.31	1070.33
944.61	1060.50
944.90	1070.56
945.20	1076.41
945.50	1074.31
945.80	1080.63
946.10	1081.56
946.40	1078.05
946.70	1078.99
947.00	1084.84
947.30	1089.29
947.60	1092.80
947.89	1089.99
948.19	1086.48
948.49	1082.73
948.79	1082.97
949.09	1078.99
949.39	1081.80
949.69	1085.77
949.98	1089.05
950.28	1085.77
950.58	1096.07
950.88	1097.95
951.18	1097.48
951.48	1089.75
951.77	1077.82
952.07	1067.75
952.37	1057.22
952.67	1049.73
952.97	1050.43
953.26	1048.79
953.56	1049.03
953.86	1056.52
954.16	1070.80
954.45	1078.28
954.75	1092.09
955.05	1101.46
955.35	1101.92
955.64	1090.22
955.94	1088.82
956.24	1087.41
956.54	1081.80
956.83	1082.03
957.13	1092.33
957.43	1087.88
957.72	1098.41
958.02	1103.33
958.32	1105.44
958.61	1105.44
958.91	1103.80
959.21	1088.35
959.50	1076.18
959.80	1065.18
960.10	1058.86
960.39	1057.22
960.69	1053.01
960.99	1057.22
961.28	1057.92
961.58	1057.45
961.87	1061.67
962.17	1068.69
962.47	1064.24
962.76	1074.31
963.06	1071.97
963.36	1073.60
963.65	1078.75
963.95	1078.05
964.24	1071.97
964.54	1075.01
964.83	1079.46
965.13	1083.90
965.42	1094.67
965.72	1098.88
966.02	1099.58
966.31	1094.43
966.61	1084.84
966.90	1071.50
967.20	1072.43
967.49	1078.28
967.79	1083.67
968.08	1086.01
968.38	1098.41
968.67	1087.18
968.97	1082.03
969.26	1082.73
969.56	1082.26
969.85	1081.56
970.15	1086.71
970.44	1085.77
970.74	1087.18
971.03	1087.65
971.32	1087.18
971.62	1096.78
971.91	1096.78
972.21	1075.24
972.50	1070.56
972.80	1067.99
973.09	1076.65
973.38	1080.16
973.68	1093.97
973.97	1090.69
974.27	1092.33
974.56	1072.67
974.85	1070.33
975.15	1071.50
975.44	1078.75
975.73	1075.48
976.03	1089.52
976.32	1085.31
976.61	1089.52
976.91	1082.03
977.20	1082.26
977.49	1068.92
977.79	1071.50
978.08	1060.03
978.37	1065.18
978.67	1074.54
978.96	1081.56
979.25	1083.67
979.55	1094.67
979.84	1096.78
980.13	1090.22
980.42	1085.77
980.72	1082.03
981.01	1075.48
981.30	1066.58
981.59	1063.07
981.89	1066.58
982.18	1060.03
982.47	1062.37
982.76	1060.73
983.06	1059.56
983.35	1068.92
983.64	1076.41
983.93	1069.16
984.22	1070.80
984.52	1071.50
984.81	1071.97
985.10	1071.50
985.39	1082.73
985.68	1083.43
985.97	1087.65
986.27	1072.67
986.56	1073.84
986.85	1066.82
987.14	1071.50
987.43	1066.11
987.72	1072.67
988.01	1072.43
988.31	1074.77
988.60	1081.09
988.89	1082.50
989.18	1082.03
989.47	1070.80
989.76	1071.03
990.05	1066.11
990.34	1067.28
990.63	1061.67
990.92	1069.39
991.21	1071.97
991.51	1071.73
991.80	1065.88
992.09	1075.48
992.38	1075.24
992.67	1081.56
992.96	1084.60
993.25	1092.09
993.54	1081.33
993.83	1086.24
994.12	1075.94
994.41	1074.54
994.70	1073.37
994.99	1086.01
995.28	1074.31
995.57	1072.67
995.86	1078.05
996.15	1082.26
996.44	1076.65
996.73	1093.73
997.02	1095.60
997.31	1084.37
997.59	1084.84
997.88	1075.71
998.17	1059.79
998.46	1057.92
998.75	1056.99
999.04	1040.84
999.33	1051.37
999.62	1061.67
999.91	1062.37
1000.20	1068.22
1000.49	1091.39
1000.77	1083.90
1001.06	1084.84
1001.35	1088.58
1001.64	1093.03
1001.93	1085.07
1002.22	1092.09
1002.51	1086.24
1002.79	1097.48
1003.08	1090.92
1003.37	1094.20
1003.66	1093.50
1003.95	1093.50
1004.23	1066.58
1004.52	1067.05
1004.81	1053.94
1005.10	1049.50
1005.39	1047.86
1005.67	1062.14
1005.96	1058.86
1006.25	1057.45
1006.54	1051.13
1006.83	1056.99
1007.11	1053.71
1007.40	1056.28
1007.69	1066.11
1007.97	1072.43
1008.26	1072.43
1008.55	1077.35
1008.84	1078.05
1009.12	1079.22
1009.41	1080.39
1009.70	1088.58
1009.98	1090.46
1010.27	1094.90
1010.56	1094.20
1010.85	1095.37
1011.13	1078.52
1011.42	1066.58
1011.71	1062.14
1011.99	1056.05
1012.28	1053.48
1012.56	1056.52
1012.85	1062.84
1013.14	1058.16
1013.42	1065.18
1013.71	1061.90
1014.00	1068.92
1014.28	1067.52
1014.57	1074.77
1014.85	1072.67
1015.14	1081.80
1015.43	1073.84
1015.71	1079.69
1016.00	1065.18
1016.28	1073.60
1016.57	1075.24
1016.85	1079.22
1017.14	1078.05
1017.43	1090.92
1017.71	1083.90
1018.00	1076.88
1018.28	1078.99
1018.57	1075.01
1018.85	1081.56
1019.14	1069.86
1019.42	1068.69
1019.71	1071.26
1019.99	1071.50
1020.28	1060.96
1020.56	1070.80
1020.85	1076.88
1021.13	1071.73
1021.42	1073.37
1021.70	1070.33
1021.99	1070.80
1022.27	1073.84
1022.55	1081.33
1022.84	1105.90
>>>>>End Processed Spectral Data<<<<<
