SpectraSuite Data File
++++++++++++++++++++++++++++++++++++
Date: Mon Aug 26 10:22:33 PDT 2019
User: corrico
Dark Spectrum Present: No
Reference Spectrum Present: No
Number of Sampled Component Spectra: 1
Spectrometers: USB2+H06089
Integration Time (usec): 2000 (USB2+H06089)
Spectra Averaged: 20 (USB2+H06089)
Boxcar Smoothing: 2 (USB2+H06089)
Correct for Electrical Dark: No (USB2+H06089)
Strobe/Lamp Enabled: No (USB2+H06089)
Correct for Detector Non-linearity: No (USB2+H06089)
Correct for Stray Light: No (USB2+H06089)
Number of Pixels in Processed Spectrum: 2048
>>>>>Begin Processed Spectral Data<<<<<
339.70	1032.06
340.07	1032.06
340.45	997.86
340.82	979.02
341.19	955.10
341.57	929.94
341.94	918.96
342.31	908.67
342.69	900.90
343.06	900.47
343.43	898.48
343.81	903.00
344.18	906.23
344.55	912.18
344.93	912.60
345.30	919.18
345.67	923.93
346.04	928.09
346.42	930.25
346.79	939.51
347.16	949.02
347.54	954.77
347.91	966.59
348.28	980.33
348.65	989.48
349.03	998.80
349.40	1007.34
349.77	1016.64
350.14	1023.26
350.52	1031.61
350.89	1037.02
351.26	1046.45
351.63	1052.19
352.01	1056.85
352.38	1060.87
352.75	1066.16
353.12	1070.51
353.50	1073.14
353.87	1074.75
354.24	1077.23
354.61	1078.14
354.98	1081.33
355.36	1081.40
355.73	1083.20
356.10	1084.93
356.47	1085.54
356.84	1082.69
357.22	1082.38
357.59	1083.22
357.96	1082.36
358.33	1080.09
358.70	1079.41
359.08	1078.85
359.45	1080.06
359.82	1078.73
360.19	1080.98
360.56	1079.03
360.94	1079.34
361.31	1077.75
361.68	1077.54
362.05	1075.62
362.42	1077.51
362.79	1080.98
363.16	1082.22
363.54	1080.27
363.91	1081.30
364.28	1082.73
364.65	1078.14
365.02	1077.96
365.39	1080.23
365.76	1078.28
366.14	1074.54
366.51	1073.95
366.88	1070.82
367.25	1070.77
367.62	1072.78
367.99	1077.02
368.36	1078.57
368.73	1078.10
369.10	1076.23
369.48	1074.12
369.85	1073.56
370.22	1076.51
370.59	1078.78
370.96	1078.87
371.33	1082.61
371.70	1078.40
372.07	1077.25
372.44	1075.55
372.81	1077.35
373.18	1077.02
373.55	1077.98
373.93	1076.37
374.30	1074.28
374.67	1077.51
375.04	1076.48
375.41	1078.00
375.78	1077.02
376.15	1078.59
376.52	1074.40
376.89	1074.70
377.26	1074.91
377.63	1076.69
378.00	1078.10
378.37	1078.82
378.74	1078.36
379.11	1076.32
379.48	1076.20
379.85	1075.43
380.22	1074.82
380.59	1072.81
380.96	1075.05
381.33	1072.83
381.70	1073.67
382.07	1074.63
382.44	1077.70
382.81	1076.18
383.18	1077.07
383.55	1076.51
383.92	1074.80
384.29	1071.87
384.66	1075.69
385.03	1075.05
385.40	1076.55
385.77	1079.48
386.14	1080.46
386.51	1077.96
386.88	1078.40
387.25	1079.29
387.62	1076.69
387.99	1078.89
388.36	1080.18
388.73	1083.64
389.10	1080.84
389.46	1081.68
389.83	1079.50
390.20	1079.83
390.57	1077.56
390.94	1079.17
391.31	1078.07
391.68	1077.07
392.05	1075.50
392.42	1079.10
392.79	1079.92
393.16	1085.82
393.53	1088.07
393.89	1091.32
394.26	1088.75
394.63	1089.78
395.00	1086.66
395.37	1086.01
395.74	1085.54
396.11	1086.85
396.48	1086.10
396.84	1085.26
397.21	1085.40
397.58	1084.46
397.95	1083.93
398.32	1083.71
398.69	1084.28
399.06	1086.10
399.42	1087.97
399.79	1090.74
400.16	1092.63
400.53	1092.98
400.90	1093.47
401.27	1091.49
401.64	1088.96
402.00	1088.70
402.37	1089.45
402.74	1088.33
403.11	1089.33
403.48	1088.89
403.84	1089.19
404.21	1089.85
404.58	1089.47
404.95	1091.27
405.32	1092.96
405.68	1092.54
406.05	1091.30
406.42	1091.30
406.79	1087.09
407.16	1087.13
407.52	1087.90
407.89	1090.34
408.26	1093.26
408.63	1095.63
408.99	1094.34
409.36	1092.05
409.73	1088.98
410.10	1089.54
410.47	1091.09
410.83	1091.09
411.20	1096.63
411.57	1100.82
411.94	1103.19
412.30	1102.79
412.67	1105.08
413.04	1101.62
413.40	1099.09
413.77	1095.63
414.14	1096.99
414.51	1099.09
414.87	1097.97
415.24	1100.24
415.61	1102.02
415.97	1100.17
416.34	1098.25
416.71	1101.95
417.08	1102.88
417.44	1105.39
417.81	1109.62
418.18	1110.05
418.54	1111.17
418.91	1110.91
419.28	1110.44
419.64	1111.68
420.01	1114.94
420.38	1115.43
420.74	1116.86
421.11	1119.50
421.48	1118.28
421.84	1119.90
422.21	1122.10
422.58	1123.86
422.94	1125.84
423.31	1127.58
423.68	1128.61
424.04	1132.94
424.41	1137.92
424.77	1142.42
425.14	1149.67
425.51	1154.05
425.87	1155.19
426.24	1157.96
426.61	1157.51
426.97	1157.09
427.34	1158.75
427.70	1164.77
428.07	1169.94
428.44	1180.12
428.80	1189.76
429.17	1201.49
429.53	1210.27
429.90	1221.69
430.27	1231.19
430.63	1244.44
431.00	1255.16
431.36	1266.02
431.73	1275.92
432.09	1287.67
432.46	1297.83
432.83	1308.38
433.19	1325.70
433.56	1346.67
433.92	1363.22
434.29	1386.93
434.65	1418.72
435.02	1440.69
435.38	1465.74
435.75	1493.31
436.11	1520.39
436.48	1551.24
436.84	1586.86
437.21	1620.59
437.57	1658.18
437.94	1699.25
438.30	1743.25
438.67	1788.66
439.03	1841.21
439.40	1897.99
439.76	1960.57
440.13	2010.01
440.49	2074.37
440.86	2137.56
441.22	2210.45
441.59	2275.42
441.95	2362.37
442.32	2440.69
442.68	2534.59
443.05	2624.44
443.41	2725.83
443.78	2823.53
444.14	2930.21
444.51	3031.95
444.87	3168.92
445.24	3307.76
445.60	3454.75
445.96	3611.21
446.33	3787.15
446.69	3939.43
447.06	4118.10
447.42	4299.10
447.79	4488.75
448.15	4710.80
448.51	4940.54
448.88	5190.42
449.24	5435.71
449.61	5717.51
449.97	5991.98
450.33	6280.90
450.70	6539.53
451.06	6865.91
451.43	7162.69
451.79	7514.36
452.15	7913.87
452.52	8365.94
452.88	8835.97
453.24	9369.49
453.61	9931.95
453.97	10486.58
454.34	11025.12
454.70	11642.90
455.06	12276.23
455.43	12891.86
455.79	13480.27
456.15	14196.40
456.52	14843.98
456.88	15598.24
457.24	16313.21
457.61	17156.13
457.97	17906.13
458.33	18667.39
458.70	19427.97
459.06	20188.99
459.42	21008.20
459.79	21776.98
460.15	22686.41
460.51	23534.20
460.88	24466.95
461.24	25250.38
461.60	26217.89
461.96	27095.54
462.33	27927.83
462.69	28686.73
463.05	29526.23
463.42	30198.08
463.78	30815.77
464.14	31340.73
464.50	31914.37
464.87	32388.85
465.23	32741.31
465.59	33081.27
465.95	33396.10
466.32	33649.93
466.68	33850.35
467.04	33980.39
467.40	34113.61
467.77	34261.58
468.13	34263.41
468.49	34167.84
468.85	34120.94
469.22	33961.15
469.58	33628.51
469.94	33360.05
470.30	33081.27
470.66	32667.65
471.03	32065.34
471.39	31662.30
471.75	31038.10
472.11	30410.74
472.47	30025.94
472.84	29733.63
473.20	29269.17
473.56	29017.73
473.92	28604.16
474.28	28108.59
474.65	27611.09
475.01	27138.91
475.37	26556.47
475.73	26108.07
476.09	25594.55
476.45	25062.76
476.81	24542.86
477.18	24024.92
477.54	23587.97
477.90	23226.38
478.26	22838.97
478.62	22490.63
478.98	22196.10
479.34	21878.84
479.71	21476.55
480.07	21135.25
480.43	20785.15
480.79	20404.58
481.15	20051.84
481.51	19758.45
481.87	19514.99
482.23	19231.92
482.59	18999.16
482.96	18723.56
483.32	18418.75
483.68	18049.60
484.04	17717.81
484.40	17349.99
484.76	16990.49
485.12	16622.77
485.48	16300.45
485.84	15969.92
486.20	15619.12
486.56	15261.74
486.92	14953.61
487.28	14604.83
487.64	14242.37
488.00	13916.12
488.37	13588.17
488.73	13232.50
489.09	12877.84
489.45	12579.30
489.81	12254.62
490.17	11963.09
490.53	11684.68
490.89	11389.77
491.25	11084.59
491.61	10793.47
491.97	10477.20
492.33	10151.75
492.69	9872.22
493.05	9566.50
493.41	9281.49
493.77	9012.49
494.13	8762.33
494.49	8511.69
494.85	8277.05
495.21	8053.53
495.57	7841.52
495.93	7637.54
496.29	7443.91
496.64	7261.21
497.00	7078.34
497.36	6892.18
497.72	6705.14
498.08	6528.41
498.44	6352.33
498.80	6195.40
499.16	6044.01
499.52	5902.29
499.88	5768.20
500.24	5644.44
500.60	5514.16
500.96	5395.92
501.32	5278.26
501.68	5158.96
502.03	5035.64
502.39	4909.32
502.75	4776.35
503.11	4654.72
503.47	4537.92
503.83	4418.72
504.19	4298.93
504.55	4194.10
504.91	4094.91
505.26	3996.93
505.62	3911.01
505.98	3829.05
506.34	3735.87
506.70	3649.53
507.06	3559.79
507.42	3479.58
507.78	3401.22
508.13	3331.21
508.49	3256.36
508.85	3187.86
509.21	3120.14
509.57	3053.72
509.93	2988.33
510.28	2920.94
510.64	2860.63
511.00	2800.10
511.36	2736.51
511.72	2678.95
512.07	2630.18
512.43	2580.37
512.79	2531.92
513.15	2489.07
513.51	2447.47
513.86	2401.37
514.22	2362.93
514.58	2320.15
514.94	2286.14
515.30	2246.59
515.65	2212.79
516.01	2177.54
516.37	2148.66
516.73	2118.26
517.08	2094.31
517.44	2068.68
517.80	2041.63
518.16	2012.44
518.51	1982.60
518.87	1947.65
519.23	1918.07
519.59	1888.77
519.94	1861.90
520.30	1837.18
520.66	1818.55
521.01	1798.58
521.37	1780.56
521.73	1762.89
522.09	1743.32
522.44	1725.26
522.80	1706.84
523.16	1688.56
523.51	1668.97
523.87	1648.81
524.23	1627.35
524.58	1607.29
524.94	1588.03
525.30	1573.33
525.65	1559.73
526.01	1547.66
526.37	1532.65
526.72	1522.59
527.08	1506.28
527.44	1495.32
527.79	1482.59
528.15	1468.43
528.51	1450.36
528.86	1436.88
529.22	1421.78
529.58	1407.86
529.93	1400.18
530.29	1388.94
530.65	1381.88
531.00	1373.12
531.36	1361.30
531.71	1350.02
532.07	1343.16
532.43	1334.69
532.78	1329.80
533.14	1322.36
533.49	1317.00
533.85	1309.55
534.21	1304.03
534.56	1298.74
534.92	1295.51
535.27	1287.36
535.63	1283.71
535.98	1277.35
536.34	1268.55
536.69	1264.08
537.05	1259.84
537.41	1256.42
537.76	1250.71
538.12	1246.24
538.47	1241.68
538.83	1237.28
539.18	1227.54
539.54	1224.76
539.89	1220.31
540.25	1217.43
540.60	1215.37
540.96	1216.45
541.31	1213.19
541.67	1209.92
542.02	1202.75
542.38	1198.99
542.73	1194.84
543.09	1188.27
543.44	1187.96
543.80	1187.82
544.15	1189.62
544.51	1187.99
544.86	1187.80
545.22	1184.83
545.57	1180.00
545.93	1172.40
546.28	1168.21
546.64	1167.01
546.99	1164.09
547.35	1164.88
547.70	1160.88
548.05	1161.58
548.41	1156.04
548.76	1156.46
549.12	1151.50
549.47	1152.25
549.83	1147.63
550.18	1151.17
550.53	1145.22
550.89	1144.87
551.24	1142.74
551.60	1139.82
551.95	1135.18
552.30	1134.67
552.66	1134.08
553.01	1133.50
553.37	1134.53
553.72	1134.53
554.07	1132.33
554.43	1127.76
554.78	1123.74
555.13	1124.14
555.49	1123.53
555.84	1124.86
556.19	1125.87
556.55	1125.52
556.90	1122.94
557.26	1118.31
557.61	1118.05
557.96	1117.04
558.32	1115.55
558.67	1115.01
559.02	1114.45
559.37	1110.37
559.73	1111.68
560.08	1114.98
560.43	1114.70
560.79	1113.53
561.14	1114.47
561.49	1113.25
561.85	1111.22
562.20	1107.47
562.55	1110.26
562.90	1110.61
563.26	1112.18
563.61	1112.48
563.96	1116.04
564.32	1115.62
564.67	1114.70
565.02	1109.74
565.37	1110.44
565.73	1108.74
566.08	1107.40
566.43	1105.93
566.78	1106.35
567.14	1105.22
567.49	1104.87
567.84	1108.31
568.19	1109.11
568.54	1111.85
568.90	1112.67
569.25	1110.63
569.60	1104.24
569.95	1101.64
570.31	1100.75
570.66	1095.42
571.01	1097.99
571.36	1098.74
571.71	1098.98
572.06	1098.41
572.42	1100.38
572.77	1100.89
573.12	1102.35
573.47	1104.90
573.82	1104.19
574.18	1104.29
574.53	1101.81
574.88	1101.25
575.23	1099.21
575.58	1098.69
575.93	1098.04
576.28	1097.24
576.64	1095.46
576.99	1095.82
577.34	1097.90
577.69	1101.76
578.04	1099.82
578.39	1101.03
578.74	1102.04
579.09	1101.36
579.44	1096.28
579.80	1096.75
580.15	1097.73
580.50	1098.18
580.85	1098.34
581.20	1098.81
581.55	1101.20
581.90	1100.33
582.25	1097.62
582.60	1092.77
582.95	1093.40
583.30	1091.84
583.65	1091.49
584.00	1092.94
584.35	1096.73
584.71	1094.65
585.06	1094.72
585.41	1094.88
585.76	1091.02
586.11	1088.07
586.46	1086.94
586.81	1084.23
587.16	1081.66
587.51	1083.11
587.86	1083.34
588.21	1085.07
588.56	1088.19
588.91	1091.34
589.26	1093.01
589.61	1094.32
589.96	1096.21
590.31	1095.16
590.66	1092.16
591.01	1090.08
591.36	1091.42
591.71	1088.47
592.06	1088.96
592.41	1091.79
592.76	1091.46
593.10	1088.16
593.45	1087.41
593.80	1086.99
594.15	1083.32
594.50	1084.56
594.85	1085.82
595.20	1085.24
595.55	1085.61
595.90	1089.64
596.25	1088.23
596.60	1089.33
596.95	1091.44
597.30	1092.37
597.64	1101.03
597.99	1102.88
598.34	1102.06
598.69	1102.06
599.04	1101.50
599.39	1089.36
599.74	1087.60
600.09	1084.14
600.44	1084.44
600.78	1084.65
601.13	1086.66
601.48	1087.72
601.83	1089.99
602.18	1092.49
602.53	1089.68
602.88	1088.96
603.22	1091.09
603.57	1088.75
603.92	1083.81
604.27	1082.17
604.62	1081.16
604.97	1079.06
605.31	1084.02
605.66	1084.35
606.01	1088.72
606.36	1088.07
606.71	1087.67
607.05	1082.66
607.40	1085.33
607.75	1081.42
608.10	1083.41
608.44	1085.35
608.79	1087.48
609.14	1083.57
609.49	1082.50
609.84	1081.35
610.18	1079.10
610.53	1079.50
610.88	1084.25
611.23	1088.54
611.57	1088.09
611.92	1089.68
612.27	1091.93
612.62	1092.98
612.96	1089.00
613.31	1089.17
613.66	1084.49
614.00	1082.76
614.35	1078.14
614.70	1080.04
615.05	1082.66
615.39	1085.33
615.74	1085.45
616.09	1087.46
616.43	1087.23
616.78	1083.50
617.13	1083.11
617.47	1082.54
617.82	1081.68
618.17	1082.36
618.51	1084.93
618.86	1083.39
619.21	1085.00
619.55	1085.40
619.90	1085.47
620.25	1082.05
620.59	1081.87
620.94	1079.27
621.29	1080.72
621.63	1079.36
621.98	1083.43
622.32	1086.52
622.67	1087.37
623.02	1084.98
623.36	1083.36
623.71	1080.72
624.05	1079.85
624.40	1081.05
624.75	1079.27
625.09	1083.13
625.44	1087.37
625.78	1088.30
626.13	1088.63
626.48	1089.52
626.82	1089.31
627.17	1083.86
627.51	1082.19
627.86	1080.56
628.20	1082.97
628.55	1084.84
628.89	1085.45
629.24	1085.28
629.58	1085.35
629.93	1083.36
630.28	1079.15
630.62	1079.64
630.97	1080.88
631.31	1081.68
631.66	1083.39
632.00	1085.61
632.35	1088.37
632.69	1085.47
633.04	1085.07
633.38	1085.40
633.73	1086.50
634.07	1085.99
634.42	1087.04
634.76	1084.89
635.11	1084.51
635.45	1083.01
635.79	1081.12
636.14	1084.16
636.48	1090.41
636.83	1090.43
637.17	1090.08
637.52	1090.48
637.86	1085.31
638.21	1080.60
638.55	1080.06
638.89	1081.14
639.24	1081.37
639.58	1084.56
639.93	1083.53
640.27	1081.91
640.61	1082.73
640.96	1080.79
641.30	1081.47
641.65	1086.85
641.99	1087.02
642.33	1085.80
642.68	1084.93
643.02	1085.28
643.37	1080.51
643.71	1080.51
644.05	1079.48
644.40	1080.44
644.74	1079.92
645.08	1079.97
645.43	1082.33
645.77	1081.56
646.11	1084.07
646.46	1084.93
646.80	1085.03
647.14	1085.96
647.49	1089.00
647.83	1086.97
648.17	1084.46
648.52	1082.29
648.86	1080.23
649.20	1078.59
649.55	1079.90
649.89	1081.19
650.23	1083.29
650.57	1080.63
650.92	1080.77
651.26	1081.94
651.60	1083.34
651.95	1083.71
652.29	1090.17
652.63	1091.56
652.97	1089.54
653.32	1087.55
653.66	1086.87
654.00	1082.10
654.34	1080.72
654.69	1081.23
655.03	1082.50
655.37	1082.50
655.71	1082.54
656.05	1082.15
656.40	1083.29
656.74	1079.76
657.08	1081.23
657.42	1081.47
657.76	1081.37
658.11	1082.85
658.45	1086.94
658.79	1086.57
659.13	1085.42
659.47	1082.31
659.82	1079.29
660.16	1078.50
660.50	1078.54
660.84	1083.71
661.18	1088.40
661.52	1092.16
661.87	1091.63
662.21	1090.46
662.55	1086.87
662.89	1082.45
663.23	1081.07
663.57	1080.77
663.91	1079.74
664.25	1081.42
664.60	1083.55
664.94	1082.43
665.28	1082.33
665.62	1084.18
665.96	1082.15
666.30	1083.50
666.64	1082.47
666.98	1082.29
667.32	1079.64
667.66	1078.61
668.01	1080.39
668.35	1078.26
668.69	1079.62
669.03	1082.85
669.37	1082.47
669.71	1079.10
670.05	1080.51
670.39	1079.60
670.73	1081.80
671.07	1081.63
671.41	1081.05
671.75	1078.59
672.09	1078.33
672.43	1076.53
672.77	1074.42
673.11	1073.81
673.45	1077.65
673.79	1077.89
674.13	1074.07
674.47	1080.70
674.81	1081.37
675.15	1079.83
675.49	1078.92
675.83	1080.09
676.17	1077.37
676.51	1078.03
676.85	1079.38
677.19	1080.88
677.53	1084.30
677.87	1085.82
678.21	1083.06
678.55	1083.83
678.89	1084.11
679.23	1083.11
679.57	1082.24
679.90	1088.58
680.24	1087.72
680.58	1084.51
680.92	1080.67
681.26	1080.65
681.60	1074.00
681.94	1074.59
682.28	1076.53
682.62	1082.03
682.96	1080.84
683.29	1085.38
683.63	1082.64
683.97	1080.32
684.31	1076.34
684.65	1074.77
684.99	1073.49
685.33	1075.01
685.67	1077.04
686.00	1078.89
686.34	1079.74
686.68	1080.37
687.02	1081.23
687.36	1082.22
687.70	1081.16
688.03	1082.50
688.37	1081.89
688.71	1080.79
689.05	1079.97
689.39	1080.81
689.72	1082.99
690.06	1083.62
690.40	1082.87
690.74	1082.69
691.08	1084.84
691.41	1082.78
691.75	1082.61
692.09	1082.19
692.43	1084.02
692.76	1082.08
693.10	1081.09
693.44	1080.70
693.78	1080.46
694.11	1078.61
694.45	1081.14
694.79	1082.15
695.13	1082.47
695.46	1084.37
695.80	1083.83
696.14	1079.46
696.48	1079.29
696.81	1079.83
697.15	1081.58
697.49	1083.08
697.82	1084.25
698.16	1084.56
698.50	1082.29
698.83	1078.85
699.17	1080.81
699.51	1084.37
699.84	1085.28
700.18	1085.28
700.52	1086.94
700.85	1083.32
701.19	1077.79
701.53	1074.54
701.86	1077.54
702.20	1075.66
702.54	1078.73
702.87	1079.08
703.21	1077.65
703.55	1077.65
703.88	1077.75
704.22	1074.91
704.55	1074.89
704.89	1077.30
705.23	1079.22
705.56	1082.94
705.90	1080.63
706.23	1080.58
706.57	1080.51
706.91	1074.63
707.24	1074.82
707.58	1077.30
707.91	1078.78
708.25	1080.53
708.58	1083.81
708.92	1080.72
709.26	1080.48
709.59	1082.33
709.93	1080.79
710.26	1082.50
710.60	1082.26
710.93	1079.88
711.27	1076.53
711.60	1077.23
711.94	1072.85
712.27	1072.74
712.61	1073.58
712.94	1076.72
713.28	1079.38
713.61	1082.64
713.95	1082.15
714.28	1086.03
714.62	1086.38
714.95	1083.55
715.29	1080.70
715.62	1083.53
715.96	1083.93
716.29	1081.33
716.63	1080.79
716.96	1084.21
717.29	1084.32
717.63	1084.46
717.96	1084.16
718.30	1085.84
718.63	1083.20
718.97	1079.81
719.30	1078.38
719.63	1077.77
719.97	1077.42
720.30	1078.92
720.64	1079.60
720.97	1079.29
721.30	1078.89
721.64	1077.44
721.97	1078.21
722.31	1078.59
722.64	1077.79
722.97	1080.27
723.31	1083.95
723.64	1084.86
723.97	1084.63
724.31	1083.13
724.64	1081.00
724.98	1076.34
725.31	1073.56
725.64	1076.65
725.98	1078.78
726.31	1081.73
726.64	1079.90
726.97	1080.32
727.31	1075.22
727.64	1073.30
727.97	1068.38
728.31	1072.29
728.64	1072.78
728.97	1077.54
729.31	1078.24
729.64	1081.70
729.97	1079.62
730.30	1080.16
730.64	1078.17
730.97	1080.70
731.30	1080.18
731.63	1082.66
731.97	1080.25
732.30	1081.61
732.63	1080.23
732.96	1079.01
733.30	1077.49
733.63	1079.71
733.96	1078.99
734.29	1079.90
734.63	1081.84
734.96	1082.33
735.29	1083.81
735.62	1085.03
735.95	1081.63
736.29	1082.54
736.62	1083.71
736.95	1083.67
737.28	1082.73
737.61	1085.54
737.94	1083.41
738.28	1083.29
738.61	1080.46
738.94	1082.01
739.27	1082.40
739.60	1081.66
739.93	1079.13
740.27	1080.60
740.60	1079.06
740.93	1080.60
741.26	1083.81
741.59	1082.78
741.92	1082.01
742.25	1081.00
742.58	1078.96
742.91	1078.03
743.25	1078.45
743.58	1080.65
743.91	1081.09
744.24	1082.50
744.57	1078.99
744.90	1079.50
745.23	1076.20
745.56	1076.95
745.89	1076.04
746.22	1079.41
746.55	1081.42
746.88	1081.09
747.21	1083.13
747.54	1079.62
747.87	1080.70
748.20	1081.07
748.53	1081.98
748.87	1078.68
749.20	1079.62
749.53	1076.25
749.86	1079.29
750.19	1077.91
750.52	1078.54
750.85	1079.99
751.18	1081.07
751.51	1079.60
751.84	1079.55
752.16	1077.82
752.49	1077.37
752.82	1076.20
753.15	1073.72
753.48	1078.31
753.81	1078.47
754.14	1077.56
754.47	1077.51
754.80	1076.11
755.13	1072.85
755.46	1077.42
755.79	1079.85
756.12	1081.14
756.45	1081.70
756.78	1080.95
757.11	1079.95
757.43	1079.71
757.76	1081.37
758.09	1079.15
758.42	1079.10
758.75	1076.53
759.08	1071.38
759.41	1069.70
759.74	1074.12
760.07	1073.84
760.39	1070.96
760.72	1079.06
761.05	1081.87
761.38	1078.26
761.71	1078.87
762.04	1081.98
762.36	1079.50
762.69	1076.58
763.02	1080.27
763.35	1078.96
763.68	1079.67
764.01	1077.33
764.33	1079.01
764.66	1077.14
764.99	1078.03
765.32	1076.39
765.65	1076.23
765.97	1074.82
766.30	1076.51
766.63	1078.36
766.96	1078.92
767.28	1081.40
767.61	1080.32
767.94	1078.24
768.27	1079.29
768.59	1080.41
768.92	1080.67
769.25	1082.12
769.58	1082.31
769.90	1080.06
770.23	1080.11
770.56	1079.13
770.89	1080.41
771.21	1080.25
771.54	1082.01
771.87	1080.23
772.19	1077.47
772.52	1078.17
772.85	1078.94
773.17	1079.53
773.50	1082.24
773.83	1085.47
774.15	1082.71
774.48	1083.67
774.81	1082.03
775.13	1081.77
775.46	1080.63
775.79	1083.53
776.11	1083.08
776.44	1083.18
776.77	1080.91
777.09	1081.05
777.42	1081.35
777.74	1083.22
778.07	1081.23
778.40	1082.24
778.72	1082.59
779.05	1081.44
779.37	1079.78
779.70	1081.82
780.03	1079.88
780.35	1078.36
780.68	1076.32
781.00	1075.78
781.33	1072.57
781.65	1075.62
781.98	1074.70
782.31	1075.97
782.63	1077.00
782.96	1079.64
783.28	1079.20
783.61	1079.81
783.93	1080.13
784.26	1079.48
784.58	1079.57
784.91	1081.37
785.23	1079.95
785.56	1080.30
785.88	1080.56
786.21	1079.92
786.53	1074.89
786.86	1077.86
787.18	1078.43
787.51	1078.07
787.83	1077.75
788.16	1079.76
788.48	1078.21
788.81	1075.52
789.13	1075.43
789.46	1077.40
789.78	1079.50
790.10	1077.33
790.43	1075.73
790.75	1075.31
791.08	1075.20
791.40	1073.35
791.73	1080.11
792.05	1084.63
792.37	1085.82
792.70	1086.83
793.02	1088.00
793.35	1082.59
793.67	1083.79
793.99	1080.81
794.32	1081.23
794.64	1078.64
794.96	1081.98
795.29	1078.73
795.61	1081.54
795.93	1078.66
796.26	1082.03
796.58	1078.89
796.91	1077.68
797.23	1077.98
797.55	1079.71
797.87	1079.46
798.20	1079.85
798.52	1079.62
798.84	1079.36
799.17	1079.57
799.49	1077.61
799.81	1079.55
800.14	1079.97
800.46	1081.00
800.78	1080.30
801.10	1081.33
801.43	1079.38
801.75	1078.68
802.07	1078.61
802.40	1077.33
802.72	1080.09
803.04	1080.70
803.36	1082.31
803.69	1077.37
804.01	1080.23
804.33	1076.97
804.65	1077.89
804.97	1076.30
805.30	1079.71
805.62	1078.19
805.94	1079.06
806.26	1080.34
806.58	1083.06
806.91	1082.87
807.23	1080.70
807.55	1077.21
807.87	1074.56
808.19	1071.50
808.52	1069.60
808.84	1069.48
809.16	1070.87
809.48	1073.28
809.80	1076.18
810.12	1078.14
810.44	1076.46
810.77	1078.07
811.09	1078.05
811.41	1077.40
811.73	1076.04
812.05	1077.63
812.37	1080.32
812.69	1079.53
813.01	1080.51
813.33	1080.25
813.66	1079.55
813.98	1073.53
814.30	1071.66
814.62	1071.10
814.94	1071.52
815.26	1074.80
815.58	1079.71
815.90	1083.29
816.22	1086.59
816.54	1089.07
816.86	1088.30
817.18	1086.45
817.50	1086.71
817.82	1082.31
818.14	1083.22
818.46	1084.35
818.78	1082.97
819.10	1078.80
819.42	1075.55
819.74	1074.03
820.06	1076.53
820.38	1075.94
820.70	1076.60
821.02	1079.53
821.34	1078.54
821.66	1077.72
821.98	1080.34
822.30	1082.29
822.62	1086.27
822.94	1086.92
823.26	1083.15
823.58	1080.60
823.90	1078.66
824.22	1075.15
824.54	1071.45
824.86	1073.14
825.18	1075.20
825.50	1077.79
825.81	1079.03
826.13	1081.58
826.45	1081.54
826.77	1079.71
827.09	1077.23
827.41	1075.59
827.73	1075.36
828.05	1073.81
828.36	1076.53
828.68	1077.35
829.00	1079.41
829.32	1083.50
829.64	1083.95
829.96	1082.73
830.28	1084.51
830.59	1082.64
830.91	1080.44
831.23	1079.76
831.55	1076.51
831.87	1075.64
832.19	1077.68
832.50	1074.70
832.82	1073.60
833.14	1078.75
833.46	1077.86
833.78	1075.83
834.09	1076.46
834.41	1080.37
834.73	1077.56
835.05	1077.16
835.36	1075.05
835.68	1078.05
836.00	1074.31
836.32	1074.40
836.63	1078.45
836.95	1081.42
837.27	1078.68
837.59	1078.87
837.90	1079.24
838.22	1074.38
838.54	1073.49
838.85	1072.36
839.17	1076.11
839.49	1076.67
839.80	1076.04
840.12	1074.38
840.44	1075.69
840.76	1072.06
841.07	1071.87
841.39	1074.21
841.71	1076.53
842.02	1078.66
842.34	1078.92
842.65	1078.19
842.97	1076.41
843.29	1076.01
843.60	1076.23
843.92	1077.89
844.24	1078.45
844.55	1078.75
844.87	1080.53
845.18	1079.13
845.50	1078.47
845.82	1079.08
846.13	1079.22
846.45	1078.03
846.76	1079.67
847.08	1081.42
847.40	1080.41
847.71	1083.15
848.03	1080.02
848.34	1078.24
848.66	1076.79
848.97	1077.21
849.29	1075.94
849.60	1078.80
849.92	1078.50
850.24	1077.72
850.55	1077.79
850.87	1076.46
851.18	1074.96
851.50	1074.63
851.81	1073.35
852.13	1071.99
852.44	1072.01
852.76	1074.59
853.07	1077.23
853.39	1079.81
853.70	1080.79
854.01	1079.95
854.33	1076.34
854.64	1074.33
854.96	1071.26
855.27	1073.56
855.59	1075.62
855.90	1079.83
856.22	1080.53
856.53	1083.43
856.84	1084.67
857.16	1085.03
857.47	1081.00
857.79	1080.91
858.10	1082.29
858.41	1079.71
858.73	1079.17
859.04	1082.29
859.36	1083.32
859.67	1082.80
859.98	1080.58
860.30	1081.40
860.61	1083.11
860.92	1080.70
861.24	1078.40
861.55	1078.45
861.87	1077.44
862.18	1076.01
862.49	1076.20
862.81	1077.79
863.12	1077.14
863.43	1076.01
863.74	1073.23
864.06	1074.77
864.37	1075.13
864.68	1072.71
865.00	1072.71
865.31	1074.47
865.62	1072.53
865.94	1071.36
866.25	1074.87
866.56	1075.20
866.87	1071.54
867.19	1072.67
867.50	1073.07
867.81	1074.26
868.12	1076.86
868.44	1078.96
868.75	1081.35
869.06	1078.47
869.37	1075.34
869.68	1073.49
870.00	1075.76
870.31	1072.55
870.62	1075.92
870.93	1079.13
871.24	1078.43
871.56	1075.78
871.87	1075.97
872.18	1074.40
872.49	1075.99
872.80	1075.99
873.12	1077.54
873.43	1077.42
873.74	1079.34
874.05	1076.72
874.36	1079.41
874.67	1078.96
874.98	1083.71
875.29	1082.85
875.61	1085.42
875.92	1084.42
876.23	1085.42
876.54	1079.29
876.85	1081.61
877.16	1081.63
877.47	1083.67
877.78	1083.11
878.09	1086.97
878.40	1085.24
878.72	1082.40
879.03	1082.52
879.34	1082.05
879.65	1079.71
879.96	1076.69
880.27	1076.72
880.58	1076.53
880.89	1076.86
881.20	1077.70
881.51	1080.11
881.82	1081.30
882.13	1079.81
882.44	1081.26
882.75	1082.33
883.06	1081.80
883.37	1077.18
883.68	1075.24
883.99	1071.75
884.30	1071.66
884.61	1071.24
884.92	1073.44
885.23	1071.61
885.54	1074.87
885.85	1069.77
886.16	1071.92
886.47	1073.58
886.78	1073.81
887.08	1072.13
887.39	1074.73
887.70	1075.01
888.01	1074.26
888.32	1077.04
888.63	1079.46
888.94	1083.08
889.25	1078.99
889.56	1077.14
889.87	1075.01
890.17	1074.14
890.48	1070.61
890.79	1071.68
891.10	1075.20
891.41	1077.14
891.72	1075.85
892.03	1075.80
892.34	1075.57
892.64	1076.55
892.95	1075.99
893.26	1074.66
893.57	1078.10
893.88	1078.96
894.18	1075.57
894.49	1077.56
894.80	1079.67
895.11	1079.31
895.42	1078.45
895.72	1080.56
896.03	1076.76
896.34	1076.81
896.65	1072.85
896.96	1072.97
897.26	1070.58
897.57	1071.45
897.88	1075.01
898.19	1078.99
898.49	1081.33
898.80	1081.68
899.11	1083.74
899.41	1080.95
899.72	1078.36
900.03	1077.54
900.34	1079.67
900.64	1077.30
900.95	1073.44
901.26	1072.88
901.56	1071.29
901.87	1070.80
902.18	1072.76
902.48	1076.44
902.79	1075.87
903.10	1078.47
903.40	1078.89
903.71	1079.88
904.02	1076.46
904.32	1079.60
904.63	1079.60
904.94	1077.56
905.24	1075.80
905.55	1079.13
905.85	1075.83
906.16	1072.25
906.47	1075.20
906.77	1076.34
907.08	1073.25
907.38	1075.64
907.69	1077.42
908.00	1077.86
908.30	1074.94
908.61	1076.58
908.91	1076.65
909.22	1079.81
909.52	1075.78
909.83	1078.26
910.14	1078.61
910.44	1077.25
910.75	1073.18
911.05	1072.39
911.36	1072.36
911.66	1072.20
911.97	1071.97
912.27	1075.80
912.58	1079.50
912.88	1079.08
913.19	1082.85
913.49	1081.47
913.80	1076.74
914.10	1077.86
914.41	1080.32
914.71	1075.27
915.01	1077.35
915.32	1079.85
915.62	1077.42
915.93	1076.48
916.23	1077.33
916.54	1078.59
916.84	1078.87
917.15	1082.08
917.45	1080.46
917.75	1081.82
918.06	1078.43
918.36	1080.67
918.67	1077.61
918.97	1077.21
919.27	1074.03
919.58	1074.26
919.88	1072.50
920.18	1074.80
920.49	1075.22
920.79	1078.59
921.10	1080.60
921.40	1080.91
921.70	1077.35
922.01	1078.73
922.31	1079.36
922.61	1081.96
922.92	1080.86
923.22	1084.04
923.52	1080.51
923.82	1079.43
924.13	1077.30
924.43	1075.76
924.73	1075.57
925.04	1076.58
925.34	1077.51
925.64	1076.06
925.94	1076.90
926.25	1075.13
926.55	1076.65
926.85	1074.80
927.15	1075.57
927.46	1079.17
927.76	1080.51
928.06	1080.72
928.36	1081.19
928.67	1080.51
928.97	1077.11
929.27	1077.42
929.57	1074.82
929.87	1075.10
930.18	1075.73
930.48	1076.72
930.78	1075.99
931.08	1077.68
931.38	1078.47
931.69	1079.03
931.99	1076.83
932.29	1077.14
932.59	1080.13
932.89	1079.20
933.19	1080.18
933.49	1079.76
933.80	1080.44
934.10	1076.37
934.40	1076.90
934.70	1077.79
935.00	1078.73
935.30	1077.47
935.60	1079.71
935.90	1081.02
936.20	1077.96
936.50	1079.31
936.81	1078.43
937.11	1076.90
937.41	1075.76
937.71	1077.04
938.01	1077.02
938.31	1077.37
938.61	1077.63
938.91	1076.15
939.21	1075.50
939.51	1076.58
939.81	1077.11
940.11	1078.17
940.41	1078.85
940.71	1081.00
941.01	1082.87
941.31	1084.81
941.61	1082.54
941.91	1086.50
942.21	1082.15
942.51	1078.87
942.81	1075.22
943.11	1074.40
943.41	1072.15
943.71	1077.14
944.01	1076.88
944.31	1080.06
944.61	1081.37
944.90	1081.68
945.20	1079.06
945.50	1078.54
945.80	1077.61
946.10	1078.92
946.40	1080.13
946.70	1081.14
947.00	1082.64
947.30	1083.32
947.60	1081.26
947.89	1080.20
948.19	1081.63
948.49	1080.02
948.79	1076.53
949.09	1079.46
949.39	1077.35
949.69	1072.95
949.98	1073.51
950.28	1076.01
950.58	1074.19
950.88	1076.90
951.18	1077.25
951.48	1077.25
951.77	1075.29
952.07	1074.84
952.37	1070.54
952.67	1070.61
952.97	1070.30
953.26	1075.38
953.56	1077.00
953.86	1077.98
954.16	1077.49
954.45	1079.20
954.75	1075.57
955.05	1076.74
955.35	1077.56
955.64	1079.34
955.94	1074.82
956.24	1075.57
956.54	1073.67
956.83	1075.13
957.13	1075.27
957.43	1073.67
957.72	1071.45
958.02	1072.60
958.32	1071.22
958.61	1072.32
958.91	1075.78
959.21	1078.07
959.50	1077.18
959.80	1077.23
960.10	1076.74
960.39	1080.25
960.69	1075.66
960.99	1075.45
961.28	1076.37
961.58	1076.67
961.87	1075.27
962.17	1080.58
962.47	1082.19
962.76	1083.08
963.06	1083.97
963.36	1082.85
963.65	1081.21
963.95	1082.01
964.24	1080.81
964.54	1077.89
964.83	1081.56
965.13	1085.42
965.42	1084.02
965.72	1082.78
966.02	1081.73
966.31	1079.24
966.61	1077.40
966.90	1077.35
967.20	1081.12
967.49	1082.85
967.79	1079.08
968.08	1077.84
968.38	1076.34
968.67	1071.08
968.97	1070.09
969.26	1072.71
969.56	1071.05
969.85	1070.91
970.15	1073.84
970.44	1076.27
970.74	1077.51
971.03	1081.28
971.32	1081.63
971.62	1081.98
971.91	1082.54
972.21	1083.50
972.50	1079.74
972.80	1082.76
973.09	1081.84
973.38	1079.53
973.68	1079.43
973.97	1082.24
974.27	1080.37
974.56	1079.69
974.85	1084.65
975.15	1083.22
975.44	1081.63
975.73	1083.95
976.03	1084.30
976.32	1080.25
976.61	1079.74
976.91	1079.34
977.20	1075.94
977.49	1075.73
977.79	1074.59
978.08	1072.97
978.37	1072.71
978.67	1073.84
978.96	1076.23
979.25	1078.14
979.55	1084.25
979.84	1085.17
980.13	1085.70
980.42	1082.85
980.72	1081.73
981.01	1076.67
981.30	1075.45
981.59	1074.94
981.89	1075.31
982.18	1077.56
982.47	1077.84
982.76	1077.25
983.06	1077.51
983.35	1078.87
983.64	1077.11
983.93	1077.56
984.22	1080.88
984.52	1082.57
984.81	1082.83
985.10	1082.92
985.39	1083.04
985.68	1081.05
985.97	1080.25
986.27	1078.07
986.56	1076.58
986.85	1076.23
987.14	1072.32
987.43	1069.67
987.72	1069.70
988.01	1071.45
988.31	1074.98
988.60	1078.21
988.89	1081.00
989.18	1079.48
989.47	1078.17
989.76	1075.90
990.05	1079.29
990.34	1080.81
990.63	1081.40
990.92	1079.08
991.21	1077.28
991.51	1072.41
991.80	1069.11
992.09	1072.39
992.38	1075.20
992.67	1075.22
992.96	1076.67
993.25	1074.80
993.54	1073.39
993.83	1074.28
994.12	1074.89
994.41	1077.91
994.70	1081.09
994.99	1081.70
995.28	1083.32
995.57	1081.30
995.86	1079.57
996.15	1075.69
996.44	1073.65
996.73	1068.52
997.02	1070.68
997.31	1067.54
997.59	1069.13
997.88	1072.55
998.17	1080.20
998.46	1079.92
998.75	1084.60
999.04	1084.60
999.33	1083.50
999.62	1079.22
999.91	1080.56
1000.20	1079.06
1000.49	1081.77
1000.77	1081.49
1001.06	1082.24
1001.35	1082.40
1001.64	1083.50
1001.93	1083.57
1002.22	1082.03
1002.51	1082.66
1002.79	1081.58
1003.08	1082.97
1003.37	1083.06
1003.66	1083.41
1003.95	1081.02
1004.23	1083.20
1004.52	1080.81
1004.81	1078.87
1005.10	1076.53
1005.39	1076.23
1005.67	1075.90
1005.96	1076.76
1006.25	1078.64
1006.54	1081.16
1006.83	1082.71
1007.11	1083.60
1007.40	1083.36
1007.69	1078.73
1007.97	1077.65
1008.26	1077.16
1008.55	1073.91
1008.84	1074.24
1009.12	1078.33
1009.41	1078.80
1009.70	1076.11
1009.98	1076.34
1010.27	1075.38
1010.56	1073.74
1010.85	1073.65
1011.13	1076.32
1011.42	1077.07
1011.71	1074.26
1011.99	1075.13
1012.28	1074.98
1012.56	1073.11
1012.85	1075.66
1013.14	1079.34
1013.42	1079.43
1013.71	1080.81
1014.00	1083.13
1014.28	1082.94
1014.57	1081.73
1014.85	1082.38
1015.14	1083.34
1015.43	1084.11
1015.71	1083.18
1016.00	1082.50
1016.28	1080.48
1016.57	1081.37
1016.85	1082.43
1017.14	1081.12
1017.43	1083.32
1017.71	1084.72
1018.00	1080.06
1018.28	1077.00
1018.57	1080.44
1018.85	1076.93
1019.14	1074.45
1019.42	1080.95
1019.71	1083.95
1019.99	1082.29
1020.28	1083.95
1020.56	1089.31
1020.85	1084.30
1021.13	1081.91
1021.42	1078.45
1021.70	1079.92
1021.99	1075.52
1022.27	1079.27
1022.55	1074.07
1022.84	1091.16
>>>>>End Processed Spectral Data<<<<<
