SpectraSuite Data File
++++++++++++++++++++++++++++++++++++
Date: Mon Aug 26 10:22:11 PDT 2019
User: corrico
Dark Spectrum Present: No
Reference Spectrum Present: No
Number of Sampled Component Spectra: 1
Spectrometers: USB2+H06089
Integration Time (usec): 2000 (USB2+H06089)
Spectra Averaged: 20 (USB2+H06089)
Boxcar Smoothing: 2 (USB2+H06089)
Correct for Electrical Dark: No (USB2+H06089)
Strobe/Lamp Enabled: No (USB2+H06089)
Correct for Detector Non-linearity: No (USB2+H06089)
Correct for Stray Light: No (USB2+H06089)
Number of Pixels in Processed Spectrum: 2048
>>>>>Begin Processed Spectral Data<<<<<
339.70	1023.87
340.07	1023.87
340.45	989.63
340.82	968.84
341.19	946.47
341.57	920.81
341.94	908.32
342.31	900.26
342.69	894.69
343.06	892.45
343.43	893.24
343.81	896.03
344.18	899.73
344.55	904.22
344.93	906.49
345.30	910.28
345.67	919.97
346.04	925.64
346.42	933.80
346.79	942.35
347.16	952.39
347.54	960.16
347.91	973.12
348.28	982.14
348.65	993.53
349.03	1004.23
349.40	1012.07
349.77	1019.70
350.14	1026.58
350.52	1035.03
350.89	1041.42
351.26	1045.19
351.63	1051.23
352.01	1058.02
352.38	1061.83
352.75	1064.08
353.12	1068.27
353.50	1070.12
353.87	1073.53
354.24	1074.80
354.61	1079.88
354.98	1084.93
355.36	1085.75
355.73	1088.00
356.10	1088.21
356.47	1085.05
356.84	1085.00
357.22	1084.42
357.59	1082.83
357.96	1083.13
358.33	1088.28
358.70	1086.73
359.08	1087.46
359.45	1083.15
359.82	1082.61
360.19	1079.50
360.56	1078.87
360.94	1079.03
361.31	1083.41
361.68	1081.07
362.05	1080.98
362.42	1078.36
362.79	1075.71
363.16	1073.67
363.54	1074.66
363.91	1071.22
364.28	1071.08
364.65	1070.02
365.02	1070.05
365.39	1073.51
365.76	1076.69
366.14	1077.44
366.51	1080.74
366.88	1082.19
367.25	1078.87
367.62	1078.80
367.99	1078.03
368.36	1077.51
368.73	1076.11
369.10	1076.83
369.48	1076.37
369.85	1078.68
370.22	1080.93
370.59	1081.73
370.96	1082.76
371.33	1080.58
371.70	1083.32
372.07	1080.81
372.44	1077.82
372.81	1076.65
373.18	1076.41
373.55	1073.07
373.93	1072.78
374.30	1075.85
374.67	1077.00
375.04	1077.16
375.41	1076.18
375.78	1077.25
376.15	1075.31
376.52	1075.92
376.89	1076.86
377.26	1078.00
377.63	1078.80
378.00	1078.57
378.37	1078.99
378.74	1082.31
379.11	1081.35
379.48	1079.67
379.85	1081.54
380.22	1081.89
380.59	1079.24
380.96	1079.99
381.33	1082.69
381.70	1082.31
382.07	1079.81
382.44	1081.02
382.81	1081.21
383.18	1077.30
383.55	1076.41
383.92	1078.45
384.29	1080.25
384.66	1080.41
385.03	1085.10
385.40	1084.53
385.77	1080.37
386.14	1079.36
386.51	1079.08
386.88	1076.23
387.25	1078.38
387.62	1082.03
387.99	1082.22
388.36	1083.36
388.73	1086.31
389.10	1085.63
389.46	1088.44
389.83	1087.53
390.20	1089.38
390.57	1086.13
390.94	1088.65
391.31	1085.73
391.68	1085.73
392.05	1086.50
392.42	1088.63
392.79	1087.06
393.16	1087.62
393.53	1088.19
393.89	1083.93
394.26	1084.98
394.63	1089.14
395.00	1089.52
395.37	1092.49
395.74	1094.04
396.11	1091.51
396.48	1085.87
396.84	1084.49
397.21	1081.63
397.58	1082.94
397.95	1085.35
398.32	1089.52
398.69	1090.60
399.06	1092.89
399.42	1093.40
399.79	1093.90
400.16	1089.87
400.53	1092.16
400.90	1087.27
401.27	1088.30
401.64	1087.41
402.00	1090.53
402.37	1089.85
402.74	1093.29
403.11	1093.97
403.48	1095.11
403.84	1095.30
404.21	1095.23
404.58	1094.13
404.95	1093.08
405.32	1093.05
405.68	1090.81
406.05	1093.64
406.42	1097.24
406.79	1099.65
407.16	1097.80
407.52	1100.29
407.89	1097.76
408.26	1095.49
408.63	1092.45
408.99	1096.45
409.36	1094.65
409.73	1097.15
410.10	1100.24
410.47	1099.75
410.83	1100.26
411.20	1104.17
411.57	1104.50
411.94	1101.85
412.30	1103.66
412.67	1101.78
413.04	1102.86
413.40	1103.09
413.77	1108.08
414.14	1107.45
414.51	1105.39
414.87	1102.84
415.24	1100.12
415.61	1096.56
415.97	1098.30
416.34	1101.34
416.71	1105.53
417.08	1105.90
417.44	1108.01
417.81	1107.66
418.18	1112.90
418.54	1110.72
418.91	1111.80
419.28	1113.79
419.64	1117.14
420.01	1115.69
420.38	1116.79
420.74	1118.38
421.11	1119.97
421.48	1120.41
421.84	1123.81
422.21	1130.71
422.58	1134.15
422.94	1137.06
423.31	1140.96
423.68	1141.67
424.04	1142.06
424.41	1145.46
424.77	1145.65
425.14	1150.58
425.51	1158.80
425.87	1162.78
426.24	1167.46
426.61	1173.71
426.97	1181.41
427.34	1185.25
427.70	1190.40
428.07	1199.74
428.44	1212.19
428.80	1217.83
429.17	1224.78
429.53	1237.23
429.90	1250.38
430.27	1260.94
430.63	1276.34
431.00	1292.47
431.36	1308.22
431.73	1322.19
432.09	1334.50
432.46	1352.24
432.83	1369.78
433.19	1386.42
433.56	1410.36
433.92	1439.59
434.29	1463.96
434.65	1493.50
435.02	1525.51
435.38	1553.02
435.75	1584.64
436.11	1620.28
436.48	1663.70
436.84	1707.33
437.21	1754.35
437.57	1801.51
437.94	1853.45
438.30	1900.19
438.67	1958.82
439.03	2019.72
439.40	2088.39
439.76	2156.45
440.13	2232.52
440.49	2311.47
440.86	2387.91
441.22	2469.69
441.59	2561.27
441.95	2665.19
442.32	2768.01
442.68	2890.40
443.05	3013.93
443.41	3138.61
443.78	3265.77
444.14	3401.43
444.51	3536.92
444.87	3703.03
445.24	3873.82
445.60	4054.07
445.96	4234.31
446.33	4443.51
446.69	4634.19
447.06	4847.58
447.42	5070.77
447.79	5308.57
448.15	5576.56
448.51	5853.09
448.88	6172.65
449.24	6471.11
449.61	6826.62
449.97	7171.45
450.33	7557.19
450.70	7914.71
451.06	8338.42
451.43	8725.00
451.79	9191.42
452.15	9678.04
452.52	10208.53
452.88	10754.43
453.24	11394.22
453.61	12086.03
453.97	12773.01
454.34	13466.04
454.70	14290.21
455.06	15074.81
455.43	15824.43
455.79	16510.61
456.15	17315.10
456.52	18050.94
456.88	18965.03
457.24	19855.89
457.61	20974.06
457.97	22030.62
458.33	23117.47
458.70	24183.42
459.06	25196.41
459.42	26205.13
459.79	27111.15
460.15	28150.07
460.51	29127.92
460.88	30195.53
461.24	31159.60
461.60	32306.18
461.96	33368.15
462.33	34375.40
462.69	35382.74
463.05	36500.68
463.42	37506.69
463.78	38399.81
464.14	39160.63
464.50	39914.02
464.87	40436.41
465.23	40778.97
465.59	41216.08
465.95	41545.91
466.32	41791.08
466.68	42063.94
467.04	42220.10
467.40	42218.09
467.77	42311.50
468.13	42226.33
468.49	42041.76
468.85	41927.98
469.22	41778.02
469.58	41507.32
469.94	41354.93
470.30	41121.15
470.66	40769.30
471.03	40269.67
471.39	39928.72
471.75	39222.70
472.11	38513.37
472.47	38017.53
472.84	37502.87
473.20	36770.52
473.56	36362.87
473.92	35796.46
474.28	35146.16
474.65	34499.92
475.01	33824.81
475.37	33009.86
475.73	32331.06
476.09	31624.03
476.45	30982.16
476.81	30438.90
477.18	29893.35
477.54	29433.52
477.90	29008.55
478.26	28433.11
478.62	27922.99
478.98	27496.38
479.34	27057.44
479.71	26507.04
480.07	26093.13
480.43	25647.17
480.79	25169.14
481.15	24705.41
481.51	24329.73
481.87	24008.51
482.23	23660.83
482.59	23325.54
482.96	23002.48
483.32	22693.76
483.68	22295.22
484.04	21932.06
484.40	21519.05
484.76	21089.26
485.12	20644.27
485.48	20221.18
485.84	19740.66
486.20	19334.35
486.56	18896.69
486.92	18516.17
487.28	18122.25
487.64	17725.09
488.00	17327.90
488.37	16960.81
488.73	16527.88
489.09	16074.47
489.45	15664.76
489.81	15229.87
490.17	14780.46
490.53	14375.48
490.89	13979.15
491.25	13559.33
491.61	13163.55
491.97	12781.69
492.33	12387.14
492.69	12019.47
493.05	11685.05
493.41	11355.18
493.77	11033.29
494.13	10732.18
494.49	10441.32
494.85	10158.93
495.21	9892.91
495.57	9641.06
495.93	9378.53
496.29	9134.48
496.64	8918.61
497.00	8662.63
497.36	8413.06
497.72	8176.31
498.08	7948.76
498.44	7716.04
498.80	7520.40
499.16	7320.68
499.52	7129.04
499.88	6946.08
500.24	6772.22
500.60	6597.53
500.96	6444.71
501.32	6290.14
501.68	6132.93
502.03	5959.89
502.39	5806.17
502.75	5631.61
503.11	5473.81
503.47	5331.93
503.83	5207.43
504.19	5075.87
504.55	4962.75
504.91	4853.94
505.26	4732.49
505.62	4609.17
505.98	4501.32
506.34	4379.26
506.70	4258.79
507.06	4155.78
507.42	4053.36
507.78	3954.01
508.13	3866.80
508.49	3790.45
508.85	3710.66
509.21	3633.19
509.57	3552.61
509.93	3464.95
510.28	3370.56
510.64	3288.69
511.00	3206.86
511.36	3133.74
511.72	3075.74
512.07	3019.43
512.43	2958.34
512.79	2905.33
513.15	2844.64
513.51	2784.16
513.86	2727.75
514.22	2674.83
514.58	2621.68
514.94	2575.22
515.30	2529.51
515.65	2486.07
516.01	2445.16
516.37	2406.49
516.73	2362.96
517.08	2327.57
517.44	2287.17
517.80	2248.51
518.16	2209.75
518.51	2180.68
518.87	2144.82
519.23	2113.67
519.59	2083.94
519.94	2052.39
520.30	2022.43
520.66	1993.11
521.01	1964.97
521.37	1935.06
521.73	1915.31
522.09	1888.23
522.44	1863.93
522.80	1844.18
523.16	1818.25
523.51	1789.88
523.87	1767.55
524.23	1746.69
524.58	1723.85
524.94	1709.11
525.30	1688.95
525.65	1676.78
526.01	1664.00
526.37	1646.92
526.72	1627.73
527.08	1614.81
527.44	1591.99
527.79	1571.15
528.15	1554.35
528.51	1538.20
528.86	1522.96
529.22	1507.05
529.58	1493.64
529.93	1479.27
530.29	1469.25
530.65	1455.79
531.00	1450.99
531.36	1440.08
531.71	1426.84
532.07	1418.81
532.43	1408.79
532.78	1391.71
533.14	1379.75
533.49	1372.37
533.85	1362.31
534.21	1354.47
534.56	1346.53
534.92	1341.48
535.27	1335.23
535.63	1326.83
535.98	1320.69
536.34	1317.25
536.69	1313.16
537.05	1304.36
537.41	1296.75
537.76	1286.05
538.12	1279.55
538.47	1269.34
538.83	1263.47
539.18	1257.99
539.54	1258.01
539.89	1250.92
540.25	1248.25
540.60	1245.54
540.96	1242.05
541.31	1238.07
541.67	1236.11
542.02	1230.75
542.38	1228.78
542.73	1227.77
543.09	1220.96
543.44	1218.32
543.80	1215.58
544.15	1211.67
544.51	1210.13
544.86	1207.37
545.22	1202.59
545.57	1203.36
545.93	1200.62
546.28	1192.81
546.64	1187.87
546.99	1186.04
547.35	1178.97
547.70	1176.12
548.05	1173.71
548.41	1175.02
548.76	1169.89
549.12	1168.96
549.47	1165.70
549.83	1164.81
550.18	1162.99
550.53	1164.58
550.89	1159.10
551.24	1158.00
551.60	1153.74
551.95	1151.52
552.30	1150.98
552.66	1151.22
553.01	1149.16
553.37	1146.25
553.72	1142.23
554.07	1138.46
554.43	1140.26
554.78	1139.26
555.13	1140.66
555.49	1140.22
555.84	1137.80
556.19	1135.39
556.55	1135.32
556.90	1134.39
557.26	1133.64
557.61	1132.59
557.96	1129.78
558.32	1127.32
558.67	1126.27
559.02	1125.14
559.37	1122.31
559.73	1119.01
560.08	1119.24
560.43	1116.13
560.79	1115.08
561.14	1118.17
561.49	1120.25
561.85	1117.23
562.20	1117.82
562.55	1117.44
562.90	1115.73
563.26	1115.41
563.61	1115.76
563.96	1115.85
564.32	1116.62
564.67	1114.38
565.02	1114.66
565.37	1113.02
565.73	1112.97
566.08	1110.75
566.43	1108.78
566.78	1106.00
567.14	1104.26
567.49	1099.42
567.84	1101.60
568.19	1104.15
568.54	1104.94
568.90	1107.89
569.25	1109.39
569.60	1108.29
569.95	1104.36
570.31	1107.14
570.66	1104.73
571.01	1108.15
571.36	1104.99
571.71	1111.97
572.06	1108.74
572.42	1104.48
572.77	1103.96
573.12	1105.27
573.47	1097.99
573.82	1095.00
574.18	1097.55
574.53	1095.51
574.88	1094.08
575.23	1096.96
575.58	1098.25
575.93	1097.71
576.28	1094.01
576.64	1093.52
576.99	1095.02
577.34	1094.67
577.69	1093.50
578.04	1094.60
578.39	1094.79
578.74	1091.34
579.09	1089.66
579.44	1091.53
579.80	1093.92
580.15	1095.25
580.50	1095.37
580.85	1096.35
581.20	1095.46
581.55	1095.00
581.90	1092.96
582.25	1091.98
582.60	1091.93
582.95	1093.69
583.30	1091.67
583.65	1093.66
584.00	1094.72
584.35	1095.84
584.71	1092.96
585.06	1093.85
585.41	1091.60
585.76	1092.26
586.11	1090.27
586.46	1092.54
586.81	1091.81
587.16	1095.16
587.51	1097.85
587.86	1095.89
588.21	1096.92
588.56	1097.80
588.91	1095.89
589.26	1093.97
589.61	1099.16
589.96	1096.26
590.31	1097.78
590.66	1097.73
591.01	1096.38
591.36	1091.95
591.71	1094.34
592.06	1091.98
592.41	1091.79
592.76	1093.85
593.10	1096.07
593.45	1093.57
593.80	1093.19
594.15	1091.65
594.50	1088.04
594.85	1085.38
595.20	1085.52
595.55	1087.90
595.90	1089.45
596.25	1091.11
596.60	1090.27
596.95	1092.54
597.30	1090.29
597.64	1098.48
597.99	1096.47
598.34	1101.25
598.69	1097.95
599.04	1098.72
599.39	1088.77
599.74	1090.03
600.09	1086.17
600.44	1087.53
600.78	1085.56
601.13	1087.18
601.48	1087.60
601.83	1088.16
602.18	1085.73
602.53	1086.87
602.88	1082.03
603.22	1082.36
603.57	1084.02
603.92	1084.56
604.27	1086.15
604.62	1090.27
604.97	1090.95
605.31	1090.53
605.66	1091.77
606.01	1090.76
606.36	1089.94
606.71	1086.62
607.05	1087.25
607.40	1082.66
607.75	1084.18
608.10	1081.82
608.44	1081.56
608.79	1083.20
609.14	1088.28
609.49	1085.82
609.84	1089.36
610.18	1090.46
610.53	1085.38
610.88	1085.94
611.23	1084.53
611.57	1082.08
611.92	1080.46
612.27	1080.77
612.62	1080.81
612.96	1080.34
613.31	1079.60
613.66	1082.15
614.00	1084.67
614.35	1083.39
614.70	1083.88
615.05	1084.60
615.39	1086.22
615.74	1084.93
616.09	1083.55
616.43	1086.94
616.78	1085.49
617.13	1079.10
617.47	1078.71
617.82	1079.78
618.17	1077.77
618.51	1081.21
618.86	1085.52
619.21	1087.37
619.55	1087.11
619.90	1088.00
620.25	1084.11
620.59	1082.33
620.94	1083.64
621.29	1085.24
621.63	1084.44
621.98	1085.42
622.32	1086.08
622.67	1080.63
623.02	1076.58
623.36	1075.05
623.71	1076.67
624.05	1078.45
624.40	1080.79
624.75	1084.96
625.09	1085.89
625.44	1085.59
625.78	1084.04
626.13	1083.86
626.48	1083.01
626.82	1083.97
627.17	1083.11
627.51	1081.37
627.86	1077.16
628.20	1079.08
628.55	1076.37
628.89	1076.11
629.24	1076.51
629.58	1080.04
629.93	1079.43
630.28	1082.61
630.62	1084.65
630.97	1088.28
631.31	1090.53
631.66	1089.14
632.00	1088.21
632.35	1087.23
632.69	1082.50
633.04	1082.33
633.38	1079.95
633.73	1079.20
634.07	1080.81
634.42	1084.23
634.76	1081.96
635.11	1080.18
635.45	1081.56
635.79	1081.35
636.14	1079.34
636.48	1082.33
636.83	1088.07
637.17	1087.74
637.52	1089.26
637.86	1092.40
638.21	1090.32
638.55	1087.13
638.89	1086.55
639.24	1082.26
639.58	1080.51
639.93	1080.16
640.27	1086.24
640.61	1086.20
640.96	1088.91
641.30	1090.46
641.65	1090.22
641.99	1086.55
642.33	1088.93
642.68	1090.64
643.02	1087.48
643.37	1085.49
643.71	1085.38
644.05	1082.71
644.40	1079.36
644.74	1080.41
645.08	1081.05
645.43	1080.79
645.77	1081.37
646.11	1082.17
646.46	1083.08
646.80	1086.69
647.14	1088.04
647.49	1085.87
647.83	1086.45
648.17	1085.49
648.52	1084.53
648.86	1083.53
649.20	1085.99
649.55	1084.28
649.89	1082.17
650.23	1081.75
650.57	1080.70
650.92	1083.22
651.26	1082.73
651.60	1082.85
651.95	1083.22
652.29	1082.52
652.63	1074.91
652.97	1076.15
653.32	1080.60
653.66	1081.82
654.00	1086.24
654.34	1088.30
654.69	1088.04
655.03	1084.35
655.37	1081.94
655.71	1075.22
656.05	1078.64
656.40	1076.30
656.74	1078.19
657.08	1081.42
657.42	1083.29
657.76	1079.99
658.11	1083.95
658.45	1082.29
658.79	1079.34
659.13	1079.36
659.47	1076.93
659.82	1078.43
660.16	1076.88
660.50	1075.97
660.84	1078.12
661.18	1082.64
661.52	1078.92
661.87	1082.43
662.21	1083.50
662.55	1081.87
662.89	1080.72
663.23	1081.14
663.57	1079.53
663.91	1078.57
664.25	1076.95
664.60	1080.18
664.94	1081.44
665.28	1080.93
665.62	1081.16
665.96	1083.76
666.30	1078.78
666.64	1076.76
666.98	1077.72
667.32	1076.79
667.66	1078.99
668.01	1082.90
668.35	1080.48
668.69	1077.58
669.03	1077.75
669.37	1073.51
669.71	1073.30
670.05	1076.97
670.39	1080.34
670.73	1081.82
671.07	1085.84
671.41	1083.81
671.75	1080.44
672.09	1079.24
672.43	1078.45
672.77	1075.97
673.11	1078.14
673.45	1081.75
673.79	1082.10
674.13	1084.21
674.47	1084.18
674.81	1084.14
675.15	1084.89
675.49	1088.37
675.83	1087.41
676.17	1083.11
676.51	1084.65
676.85	1085.66
677.19	1085.05
677.53	1084.16
677.87	1084.49
678.21	1080.93
678.55	1078.10
678.89	1075.29
679.23	1080.56
679.57	1088.33
679.90	1091.32
680.24	1090.43
680.58	1090.36
680.92	1084.51
681.26	1081.42
681.60	1081.51
681.94	1083.79
682.28	1083.88
682.62	1085.38
682.96	1080.53
683.29	1076.74
683.63	1075.85
683.97	1075.90
684.31	1076.46
684.65	1081.84
684.99	1084.32
685.33	1085.66
685.67	1089.26
686.00	1088.07
686.34	1085.59
686.68	1085.33
687.02	1084.14
687.36	1080.44
687.70	1081.96
688.03	1079.88
688.37	1078.75
688.71	1078.92
689.05	1079.13
689.39	1076.18
689.72	1077.58
690.06	1078.31
690.40	1078.68
690.74	1082.97
691.08	1085.05
691.41	1088.35
691.75	1086.29
692.09	1086.27
692.43	1079.74
692.76	1078.85
693.10	1076.34
693.44	1075.41
693.78	1075.59
694.11	1079.06
694.45	1079.67
694.79	1080.70
695.13	1081.96
695.46	1078.54
695.80	1075.34
696.14	1075.69
696.48	1076.79
696.81	1078.10
697.15	1080.41
697.49	1082.15
697.82	1084.04
698.16	1085.31
698.50	1086.52
698.83	1086.85
699.17	1088.26
699.51	1088.61
699.84	1084.93
700.18	1081.12
700.52	1084.21
700.85	1084.98
701.19	1084.58
701.53	1085.94
701.86	1088.56
702.20	1083.48
702.54	1082.15
702.87	1081.40
703.21	1081.26
703.55	1082.17
703.88	1085.66
704.22	1085.31
704.55	1082.50
704.89	1081.21
705.23	1078.59
705.56	1076.74
705.90	1078.33
706.23	1078.80
706.57	1080.13
706.91	1085.33
707.24	1086.36
707.58	1085.68
707.91	1081.89
708.25	1079.81
708.58	1075.90
708.92	1070.63
709.26	1066.51
709.59	1071.99
709.93	1072.85
710.26	1072.97
710.60	1077.72
710.93	1080.70
711.27	1078.24
711.60	1076.95
711.94	1077.54
712.27	1073.74
712.61	1074.03
712.94	1074.10
713.28	1078.38
713.61	1078.75
713.95	1080.86
714.28	1081.09
714.62	1083.93
714.95	1083.20
715.29	1082.73
715.62	1083.69
715.96	1083.50
716.29	1082.73
716.63	1079.08
716.96	1078.19
717.29	1078.38
717.63	1079.15
717.96	1077.21
718.30	1081.87
718.63	1081.23
718.97	1080.18
719.30	1078.14
719.63	1082.38
719.97	1079.60
720.30	1080.74
720.64	1082.26
720.97	1081.63
721.30	1077.93
721.64	1080.65
721.97	1079.20
722.31	1077.54
722.64	1079.41
722.97	1079.41
723.31	1076.67
723.64	1076.86
723.97	1079.41
724.31	1078.47
724.64	1078.03
724.98	1078.24
725.31	1078.92
725.64	1076.15
725.98	1077.44
726.31	1076.81
726.64	1075.38
726.97	1076.53
727.31	1076.23
727.64	1074.98
727.97	1077.63
728.31	1076.37
728.64	1079.13
728.97	1079.83
729.31	1079.99
729.64	1079.74
729.97	1082.19
730.30	1080.53
730.64	1080.11
730.97	1082.01
731.30	1081.40
731.63	1083.69
731.97	1081.37
732.30	1084.84
732.63	1084.00
732.96	1085.96
733.30	1084.81
733.63	1086.13
733.96	1082.76
734.29	1081.56
734.63	1080.04
734.96	1079.97
735.29	1081.26
735.62	1079.90
735.95	1080.79
736.29	1078.87
736.62	1077.37
736.95	1073.14
737.28	1075.90
737.61	1076.58
737.94	1076.88
738.28	1077.30
738.61	1081.56
738.94	1083.36
739.27	1083.46
739.60	1087.44
739.93	1084.60
740.27	1084.63
740.60	1082.69
740.93	1083.22
741.26	1079.62
741.59	1080.93
741.92	1077.70
742.25	1076.76
742.58	1078.03
742.91	1082.80
743.25	1086.92
743.58	1085.70
743.91	1086.71
744.24	1082.97
744.57	1078.78
744.90	1074.56
745.23	1076.32
745.56	1077.40
745.89	1077.09
746.22	1077.35
746.55	1078.80
746.88	1080.53
747.21	1079.74
747.54	1081.82
747.87	1081.47
748.20	1081.51
748.53	1080.56
748.87	1078.82
749.20	1081.56
749.53	1081.94
749.86	1083.01
750.19	1082.99
750.52	1080.70
750.85	1078.89
751.18	1080.98
751.51	1081.37
751.84	1078.45
752.16	1082.33
752.49	1079.38
752.82	1075.92
753.15	1075.13
753.48	1079.08
753.81	1076.41
754.14	1078.03
754.47	1078.61
754.80	1078.68
755.13	1077.44
755.46	1081.91
755.79	1082.59
756.12	1082.85
756.45	1080.13
756.78	1081.09
757.11	1078.85
757.43	1077.09
757.76	1076.88
758.09	1079.57
758.42	1082.05
758.75	1080.30
759.08	1081.02
759.41	1081.33
759.74	1082.19
760.07	1076.76
760.39	1079.48
760.72	1078.43
761.05	1078.07
761.38	1077.33
761.71	1080.56
762.04	1078.87
762.36	1078.03
762.69	1079.31
763.02	1078.38
763.35	1078.40
763.68	1080.58
764.01	1082.01
764.33	1078.31
764.66	1078.24
764.99	1073.67
765.32	1071.61
765.65	1069.25
765.97	1075.15
766.30	1075.85
766.63	1077.91
766.96	1078.92
767.28	1083.81
767.61	1081.28
767.94	1079.64
768.27	1081.02
768.59	1080.60
768.92	1078.12
769.25	1076.74
769.58	1080.39
769.90	1079.22
770.23	1079.24
770.56	1078.73
770.89	1080.11
771.21	1077.70
771.54	1076.93
771.87	1079.29
772.19	1077.82
772.52	1076.11
772.85	1076.76
773.17	1078.85
773.50	1080.11
773.83	1079.76
774.15	1081.54
774.48	1084.23
774.81	1084.46
775.13	1080.25
775.46	1084.25
775.79	1084.91
776.11	1081.75
776.44	1082.08
776.77	1084.23
777.09	1084.60
777.42	1082.57
777.74	1082.10
778.07	1079.41
778.40	1077.49
778.72	1075.97
779.05	1080.58
779.37	1082.61
779.70	1085.47
780.03	1086.94
780.35	1083.32
780.68	1080.09
781.00	1078.52
781.33	1079.03
781.65	1079.99
781.98	1079.64
782.31	1080.41
782.63	1080.60
782.96	1078.94
783.28	1078.38
783.61	1079.29
783.93	1074.84
784.26	1072.15
784.58	1072.85
784.91	1070.09
785.23	1075.20
785.56	1078.71
785.88	1081.47
786.21	1081.47
786.53	1081.28
786.86	1077.37
787.18	1075.64
787.51	1073.42
787.83	1072.04
788.16	1074.00
788.48	1073.18
788.81	1073.81
789.13	1073.32
789.46	1077.02
789.78	1078.43
790.10	1081.33
790.43	1080.84
790.75	1083.43
791.08	1080.46
791.40	1079.88
791.73	1080.53
792.05	1082.01
792.37	1081.51
792.70	1082.50
793.02	1082.19
793.35	1084.04
793.67	1081.54
793.99	1080.65
794.32	1077.70
794.64	1072.95
794.96	1069.86
795.29	1070.28
795.61	1072.67
795.93	1075.76
796.26	1077.00
796.58	1077.54
796.91	1078.24
797.23	1075.69
797.55	1072.34
797.87	1076.41
798.20	1074.42
798.52	1077.42
798.84	1076.25
799.17	1076.11
799.49	1075.31
799.81	1076.60
800.14	1074.66
800.46	1075.24
800.78	1076.90
801.10	1076.11
801.43	1074.12
801.75	1076.55
802.07	1078.52
802.40	1081.68
802.72	1084.63
803.04	1085.42
803.36	1084.39
803.69	1084.91
804.01	1079.48
804.33	1075.83
804.65	1077.84
804.97	1077.54
805.30	1076.72
805.62	1079.13
805.94	1080.56
806.26	1079.90
806.58	1076.72
806.91	1075.03
807.23	1076.25
807.55	1073.51
807.87	1071.64
808.19	1075.17
808.52	1076.81
808.84	1077.70
809.16	1079.62
809.48	1082.66
809.80	1080.81
810.12	1081.80
810.44	1080.53
810.77	1081.80
811.09	1078.57
811.41	1078.57
811.73	1076.15
812.05	1077.75
812.37	1077.49
812.69	1077.14
813.01	1075.59
813.33	1077.35
813.66	1073.60
813.98	1071.08
814.30	1073.46
814.62	1075.90
814.94	1075.34
815.26	1076.04
815.58	1076.65
815.90	1077.63
816.22	1079.10
816.54	1079.95
816.86	1083.36
817.18	1085.31
817.50	1082.71
817.82	1080.11
818.14	1080.84
818.46	1079.34
818.78	1078.85
819.10	1080.48
819.42	1078.82
819.74	1077.82
820.06	1077.04
820.38	1077.49
820.70	1078.33
821.02	1077.56
821.34	1078.36
821.66	1074.66
821.98	1076.20
822.30	1076.51
822.62	1081.05
822.94	1078.75
823.26	1079.85
823.58	1076.20
823.90	1073.16
824.22	1069.84
824.54	1071.64
824.86	1074.00
825.18	1076.04
825.50	1079.69
825.81	1080.77
826.13	1081.33
826.45	1081.82
826.77	1081.91
827.09	1081.68
827.41	1083.81
827.73	1083.36
828.05	1084.79
828.36	1083.67
828.68	1083.01
829.00	1079.88
829.32	1077.54
829.64	1075.52
829.96	1076.76
830.28	1075.50
830.59	1076.95
830.91	1080.04
831.23	1081.70
831.55	1081.61
831.87	1077.89
832.19	1078.92
832.50	1077.54
832.82	1073.00
833.14	1070.80
833.46	1073.70
833.78	1077.42
834.09	1079.48
834.41	1083.43
834.73	1085.70
835.05	1086.57
835.36	1084.49
835.68	1080.81
836.00	1081.77
836.32	1080.58
836.63	1086.34
836.95	1085.99
837.27	1085.66
837.59	1083.41
837.90	1085.84
838.22	1080.91
838.54	1079.69
838.85	1079.60
839.17	1077.86
839.49	1078.05
839.80	1075.15
840.12	1074.59
840.44	1077.37
840.76	1077.09
841.07	1075.38
841.39	1077.30
841.71	1075.03
842.02	1073.60
842.34	1070.94
842.65	1070.09
842.97	1069.70
843.29	1072.50
843.60	1076.04
843.92	1082.73
844.24	1080.65
844.55	1082.64
844.87	1082.83
845.18	1080.39
845.50	1077.37
845.82	1079.57
846.13	1075.87
846.45	1076.76
846.76	1076.65
847.08	1078.71
847.40	1080.44
847.71	1082.54
848.03	1080.30
848.34	1079.83
848.66	1082.80
848.97	1080.46
849.29	1079.71
849.60	1080.18
849.92	1083.64
850.24	1079.78
850.55	1079.55
850.87	1077.56
851.18	1075.92
851.50	1072.29
851.81	1070.72
852.13	1071.73
852.44	1073.95
852.76	1075.52
853.07	1074.19
853.39	1075.17
853.70	1075.55
854.01	1076.83
854.33	1073.18
854.64	1072.08
854.96	1074.10
855.27	1072.85
855.59	1073.18
855.90	1080.44
856.22	1081.56
856.53	1079.76
856.84	1078.57
857.16	1078.28
857.47	1073.67
857.79	1074.59
858.10	1075.64
858.41	1075.01
858.73	1074.19
859.04	1074.89
859.36	1073.25
859.67	1072.55
859.98	1070.16
860.30	1072.46
860.61	1070.96
860.92	1072.13
861.24	1071.85
861.55	1078.00
861.87	1076.11
862.18	1079.83
862.49	1083.60
862.81	1084.81
863.12	1084.09
863.43	1082.85
863.74	1079.01
864.06	1076.79
864.37	1074.19
864.68	1074.38
865.00	1073.07
865.31	1075.76
865.62	1074.96
865.94	1078.47
866.25	1075.57
866.56	1077.70
866.87	1074.05
867.19	1073.91
867.50	1070.75
867.81	1073.02
868.12	1072.43
868.44	1075.15
868.75	1077.77
869.06	1077.93
869.37	1077.02
869.68	1074.54
870.00	1076.74
870.31	1074.38
870.62	1075.38
870.93	1074.40
871.24	1076.34
871.56	1073.18
871.87	1073.37
872.18	1073.16
872.49	1075.57
872.80	1078.94
873.12	1080.18
873.43	1078.40
873.74	1077.42
874.05	1079.10
874.36	1076.18
874.67	1074.68
874.98	1078.50
875.29	1081.96
875.61	1082.31
875.92	1081.70
876.23	1078.21
876.54	1075.97
876.85	1075.66
877.16	1073.93
877.47	1074.89
877.78	1080.16
878.09	1079.27
878.40	1076.76
878.72	1077.65
879.03	1080.81
879.34	1079.69
879.65	1081.16
879.96	1084.28
880.27	1080.58
880.58	1076.95
880.89	1081.42
881.20	1082.12
881.51	1080.27
881.82	1080.48
882.13	1081.96
882.44	1076.88
882.75	1073.11
883.06	1072.11
883.37	1073.72
883.68	1073.91
883.99	1073.23
884.30	1077.02
884.61	1075.55
884.92	1072.39
885.23	1072.55
885.54	1072.81
885.85	1072.34
886.16	1073.51
886.47	1077.25
886.78	1077.25
887.08	1077.33
887.39	1074.40
887.70	1076.11
888.01	1074.80
888.32	1076.15
888.63	1078.89
888.94	1080.98
889.25	1081.51
889.56	1081.16
889.87	1077.04
890.17	1073.79
890.48	1072.97
890.79	1073.04
891.10	1076.44
891.41	1077.28
891.72	1077.04
892.03	1076.55
892.34	1075.22
892.64	1074.17
892.95	1075.20
893.26	1074.89
893.57	1076.25
893.88	1075.57
894.18	1072.83
894.49	1074.38
894.80	1076.37
895.11	1075.17
895.42	1075.20
895.72	1077.04
896.03	1075.08
896.34	1074.91
896.65	1076.88
896.96	1077.65
897.26	1075.97
897.57	1076.37
897.88	1078.00
898.19	1076.25
898.49	1075.17
898.80	1075.99
899.11	1076.53
899.41	1076.53
899.72	1078.50
900.03	1077.37
900.34	1078.47
900.64	1079.10
900.95	1075.10
901.26	1074.80
901.56	1075.64
901.87	1072.81
902.18	1073.16
902.48	1075.50
902.79	1072.25
903.10	1076.11
903.40	1078.89
903.71	1075.34
904.02	1075.01
904.32	1075.48
904.63	1072.62
904.94	1074.26
905.24	1078.17
905.55	1081.02
905.85	1081.47
906.16	1082.64
906.47	1077.91
906.77	1077.84
907.08	1075.87
907.38	1075.50
907.69	1073.63
908.00	1074.80
908.30	1071.17
908.61	1071.78
908.91	1073.70
909.22	1076.58
909.52	1077.86
909.83	1079.83
910.14	1079.85
910.44	1077.35
910.75	1073.35
911.05	1073.25
911.36	1073.46
911.66	1073.88
911.97	1078.94
912.27	1080.09
912.58	1080.27
912.88	1078.45
913.19	1077.72
913.49	1073.42
913.80	1073.49
914.10	1071.38
914.41	1075.80
914.71	1076.67
915.01	1079.41
915.32	1080.41
915.62	1080.30
915.93	1077.02
916.23	1076.74
916.54	1076.76
916.84	1076.15
917.15	1079.55
917.45	1082.10
917.75	1082.76
918.06	1083.81
918.36	1085.68
918.67	1087.25
918.97	1085.17
919.27	1082.33
919.58	1080.13
919.88	1078.99
920.18	1075.52
920.49	1077.79
920.79	1079.88
921.10	1081.51
921.40	1081.14
921.70	1081.68
922.01	1080.91
922.31	1081.54
922.61	1078.68
922.92	1079.90
923.22	1080.65
923.52	1074.87
923.82	1072.85
924.13	1075.17
924.43	1074.89
924.73	1072.81
925.04	1075.66
925.34	1076.06
925.64	1076.15
925.94	1076.67
926.25	1079.24
926.55	1081.94
926.85	1081.16
927.15	1081.12
927.46	1078.03
927.76	1077.02
928.06	1076.30
928.36	1077.61
928.67	1075.57
928.97	1076.51
929.27	1077.96
929.57	1076.30
929.87	1077.54
930.18	1076.72
930.48	1079.24
930.78	1078.52
931.08	1079.76
931.38	1079.69
931.69	1080.81
931.99	1078.45
932.29	1078.12
932.59	1079.20
932.89	1077.98
933.19	1077.40
933.49	1078.99
933.80	1076.65
934.10	1074.70
934.40	1073.93
934.70	1075.10
935.00	1077.07
935.30	1080.65
935.60	1082.01
935.90	1083.01
936.20	1081.94
936.50	1078.26
936.81	1075.27
937.11	1076.20
937.41	1075.10
937.71	1075.43
938.01	1072.88
938.31	1074.82
938.61	1076.08
938.91	1079.85
939.21	1082.85
939.51	1084.96
939.81	1085.28
940.11	1085.38
940.41	1082.40
940.71	1081.26
941.01	1083.62
941.31	1082.01
941.61	1080.86
941.91	1080.95
942.21	1078.43
942.51	1075.80
942.81	1078.12
943.11	1077.16
943.41	1074.96
943.71	1078.31
944.01	1078.89
944.31	1079.06
944.61	1076.53
944.90	1077.09
945.20	1076.23
945.50	1074.45
945.80	1071.78
946.10	1070.91
946.40	1072.43
946.70	1071.66
947.00	1076.60
947.30	1077.14
947.60	1079.27
947.89	1079.08
948.19	1078.47
948.49	1074.87
948.79	1072.78
949.09	1071.64
949.39	1070.05
949.69	1071.33
949.98	1071.90
950.28	1073.67
950.58	1075.03
950.88	1074.40
951.18	1074.61
951.48	1074.05
951.77	1075.13
952.07	1074.61
952.37	1075.41
952.67	1078.68
952.97	1077.33
953.26	1076.27
953.56	1076.81
953.86	1076.67
954.16	1073.44
954.45	1072.71
954.75	1072.90
955.05	1075.41
955.35	1076.32
955.64	1074.10
955.94	1076.90
956.24	1076.32
956.54	1075.50
956.83	1076.58
957.13	1076.34
957.43	1075.73
957.72	1075.78
958.02	1075.01
958.32	1076.58
958.61	1080.39
958.91	1082.54
959.21	1084.25
959.50	1082.73
959.80	1078.26
960.10	1076.48
960.39	1075.34
960.69	1073.91
960.99	1073.86
961.28	1074.35
961.58	1074.68
961.87	1078.26
962.17	1080.09
962.47	1082.94
962.76	1086.83
963.06	1085.49
963.36	1083.62
963.65	1082.73
963.95	1078.50
964.24	1076.53
964.54	1076.67
964.83	1074.70
965.13	1074.56
965.42	1074.89
965.72	1074.24
966.02	1074.07
966.31	1073.21
966.61	1073.77
966.90	1074.33
967.20	1074.52
967.49	1075.45
967.79	1076.72
968.08	1074.61
968.38	1077.49
968.67	1079.15
968.97	1078.96
969.26	1078.71
969.56	1079.95
969.85	1077.23
970.15	1074.70
970.44	1070.44
970.74	1069.62
971.03	1069.25
971.32	1070.09
971.62	1071.10
971.91	1075.71
972.21	1078.31
972.50	1079.60
972.80	1081.94
973.09	1083.15
973.38	1083.60
973.68	1083.11
973.97	1083.53
974.27	1081.70
974.56	1081.35
974.85	1077.16
975.15	1076.04
975.44	1074.77
975.73	1073.28
976.03	1075.10
976.32	1078.71
976.61	1076.79
976.91	1077.54
977.20	1078.80
977.49	1073.91
977.79	1069.91
978.08	1070.23
978.37	1070.35
978.67	1071.59
978.96	1073.60
979.25	1076.30
979.55	1079.81
979.84	1080.11
980.13	1078.87
980.42	1078.50
980.72	1080.79
981.01	1081.26
981.30	1078.19
981.59	1076.20
981.89	1075.99
982.18	1074.31
982.47	1071.22
982.76	1071.52
983.06	1072.53
983.35	1071.43
983.64	1068.15
983.93	1064.92
984.22	1067.24
984.52	1068.31
984.81	1071.26
985.10	1075.92
985.39	1078.03
985.68	1075.31
985.97	1076.13
986.27	1076.79
986.56	1077.09
986.85	1077.68
987.14	1079.53
987.43	1074.87
987.72	1073.65
988.01	1074.47
988.31	1076.62
988.60	1076.48
988.89	1078.12
989.18	1078.28
989.47	1077.37
989.76	1073.93
990.05	1075.01
990.34	1077.23
990.63	1072.92
990.92	1070.44
991.21	1073.32
991.51	1072.34
991.80	1070.68
992.09	1075.57
992.38	1074.49
992.67	1072.22
992.96	1076.76
993.25	1080.91
993.54	1080.13
993.83	1084.25
994.12	1086.34
994.41	1081.82
994.70	1077.51
994.99	1076.11
995.28	1076.37
995.57	1074.45
995.86	1073.67
996.15	1073.81
996.44	1073.93
996.73	1071.75
997.02	1072.64
997.31	1073.46
997.59	1075.83
997.88	1075.45
998.17	1076.60
998.46	1076.95
998.75	1075.31
999.04	1073.30
999.33	1073.95
999.62	1071.26
999.91	1071.40
1000.20	1075.57
1000.49	1076.53
1000.77	1076.11
1001.06	1077.93
1001.35	1078.85
1001.64	1076.46
1001.93	1074.19
1002.22	1073.74
1002.51	1075.43
1002.79	1076.27
1003.08	1078.64
1003.37	1080.88
1003.66	1084.07
1003.95	1081.84
1004.23	1080.72
1004.52	1077.47
1004.81	1077.28
1005.10	1073.86
1005.39	1074.61
1005.67	1070.98
1005.96	1071.80
1006.25	1070.33
1006.54	1073.49
1006.83	1069.32
1007.11	1070.47
1007.40	1068.01
1007.69	1071.29
1007.97	1072.41
1008.26	1077.47
1008.55	1079.55
1008.84	1081.75
1009.12	1079.34
1009.41	1078.00
1009.70	1077.86
1009.98	1078.26
1010.27	1075.29
1010.56	1078.28
1010.85	1077.68
1011.13	1075.52
1011.42	1074.70
1011.71	1079.48
1011.99	1077.35
1012.28	1079.31
1012.56	1082.26
1012.85	1081.68
1013.14	1082.08
1013.42	1081.26
1013.71	1080.72
1014.00	1078.26
1014.28	1078.75
1014.57	1074.47
1014.85	1076.06
1015.14	1072.76
1015.43	1071.36
1015.71	1069.65
1016.00	1073.63
1016.28	1075.97
1016.57	1077.16
1016.85	1077.54
1017.14	1078.17
1017.43	1076.27
1017.71	1077.65
1018.00	1078.40
1018.28	1079.36
1018.57	1081.54
1018.85	1082.87
1019.14	1079.50
1019.42	1080.20
1019.71	1082.22
1019.99	1081.35
1020.28	1079.34
1020.56	1074.07
1020.85	1072.15
1021.13	1071.64
1021.42	1072.78
1021.70	1072.81
1021.99	1075.01
1022.27	1074.80
1022.55	1066.47
1022.84	1072.20
>>>>>End Processed Spectral Data<<<<<
