SpectraSuite Data File
++++++++++++++++++++++++++++++++++++
Date: Mon Aug 26 10:22:26 PDT 2019
User: corrico
Dark Spectrum Present: No
Reference Spectrum Present: No
Number of Sampled Component Spectra: 1
Spectrometers: USB2+H06089
Integration Time (usec): 2000 (USB2+H06089)
Spectra Averaged: 20 (USB2+H06089)
Boxcar Smoothing: 2 (USB2+H06089)
Correct for Electrical Dark: No (USB2+H06089)
Strobe/Lamp Enabled: No (USB2+H06089)
Correct for Detector Non-linearity: No (USB2+H06089)
Correct for Stray Light: No (USB2+H06089)
Number of Pixels in Processed Spectrum: 2048
>>>>>Begin Processed Spectral Data<<<<<
339.70	1031.71
340.07	1031.71
340.45	993.30
340.82	971.39
341.19	948.67
341.57	923.15
341.94	912.29
342.31	905.32
342.69	900.03
343.06	895.51
343.43	894.95
343.81	895.89
344.18	898.74
344.55	904.73
344.93	909.32
345.30	914.05
345.67	920.65
346.04	929.08
346.42	936.03
346.79	945.93
347.16	953.93
347.54	968.56
347.91	976.78
348.28	984.90
348.65	993.81
349.03	1005.28
349.40	1011.77
349.77	1021.25
350.14	1029.25
350.52	1036.95
350.89	1044.63
351.26	1048.49
351.63	1051.23
352.01	1055.86
352.38	1059.40
352.75	1063.84
353.12	1067.17
353.50	1075.66
353.87	1078.92
354.24	1083.62
354.61	1081.96
354.98	1086.43
355.36	1083.62
355.73	1086.45
356.10	1085.42
356.47	1085.68
356.84	1081.30
357.22	1081.23
357.59	1078.94
357.96	1077.72
358.33	1078.64
358.70	1080.25
359.08	1079.81
359.45	1080.51
359.82	1081.02
360.19	1079.20
360.56	1077.58
360.94	1077.54
361.31	1077.86
361.68	1075.69
362.05	1076.62
362.42	1079.08
362.79	1077.56
363.16	1076.27
363.54	1075.97
363.91	1077.72
364.28	1076.39
364.65	1079.01
365.02	1076.20
365.39	1076.65
365.76	1073.56
366.14	1070.80
366.51	1071.59
366.88	1071.50
367.25	1069.91
367.62	1070.56
367.99	1075.43
368.36	1072.74
368.73	1076.30
369.10	1079.92
369.48	1078.19
369.85	1078.17
370.22	1078.73
370.59	1075.17
370.96	1074.77
371.33	1076.30
371.70	1073.07
372.07	1071.78
372.44	1074.66
372.81	1076.06
373.18	1078.43
373.55	1078.92
373.93	1080.79
374.30	1082.50
374.67	1077.56
375.04	1075.08
375.41	1075.66
375.78	1074.52
376.15	1071.61
376.52	1071.50
376.89	1072.62
377.26	1075.05
377.63	1076.41
378.00	1078.89
378.37	1081.16
378.74	1080.46
379.11	1078.54
379.48	1079.03
379.85	1076.27
380.22	1078.17
380.59	1080.60
380.96	1080.84
381.33	1078.80
381.70	1082.45
382.07	1080.98
382.44	1082.76
382.81	1082.31
383.18	1084.79
383.55	1084.51
383.92	1083.62
384.29	1079.10
384.66	1078.45
385.03	1077.02
385.40	1073.09
385.77	1073.14
386.14	1075.78
386.51	1077.44
386.88	1077.04
387.25	1077.14
387.62	1078.68
387.99	1078.05
388.36	1079.69
388.73	1079.71
389.10	1081.54
389.46	1081.51
389.83	1083.04
390.20	1080.32
390.57	1083.53
390.94	1082.99
391.31	1084.81
391.68	1083.22
392.05	1082.05
392.42	1080.37
392.79	1079.81
393.16	1078.38
393.53	1077.33
393.89	1080.70
394.26	1081.37
394.63	1081.96
395.00	1082.64
395.37	1085.42
395.74	1085.91
396.11	1086.90
396.48	1089.22
396.84	1088.02
397.21	1088.58
397.58	1087.04
397.95	1087.09
398.32	1085.52
398.69	1085.42
399.06	1086.34
399.42	1088.26
399.79	1088.96
400.16	1088.61
400.53	1088.56
400.90	1087.25
401.27	1086.24
401.64	1086.45
402.00	1085.89
402.37	1087.69
402.74	1087.58
403.11	1088.51
403.48	1089.24
403.84	1091.27
404.21	1093.99
404.58	1094.36
404.95	1093.55
405.32	1090.92
405.68	1090.76
406.05	1088.35
406.42	1086.69
406.79	1089.00
407.16	1089.78
407.52	1089.07
407.89	1088.00
408.26	1091.60
408.63	1089.64
408.99	1090.57
409.36	1092.89
409.73	1092.98
410.10	1093.85
410.47	1095.11
410.83	1097.90
411.20	1098.81
411.57	1102.60
411.94	1101.27
412.30	1100.31
412.67	1094.86
413.04	1095.11
413.40	1090.64
413.77	1090.06
414.14	1093.22
414.51	1096.38
414.87	1097.85
415.24	1101.20
415.61	1102.02
415.97	1098.62
416.34	1101.95
416.71	1100.36
417.08	1101.74
417.44	1103.16
417.81	1103.89
418.18	1100.29
418.54	1102.13
418.91	1100.26
419.28	1100.15
419.64	1101.41
420.01	1107.87
420.38	1108.03
420.74	1111.54
421.11	1114.02
421.48	1116.39
421.84	1114.77
422.21	1120.06
422.58	1122.85
422.94	1124.51
423.31	1129.19
423.68	1132.44
424.04	1133.78
424.41	1136.33
424.77	1137.66
425.14	1139.42
425.51	1140.26
425.87	1145.79
426.24	1148.92
426.61	1156.55
426.97	1166.03
427.34	1174.69
427.70	1178.32
428.07	1185.55
428.44	1192.62
428.80	1198.61
429.17	1205.98
429.53	1213.05
429.90	1222.18
430.27	1229.37
430.63	1239.66
431.00	1251.37
431.36	1264.76
431.73	1278.73
432.09	1294.48
432.46	1304.80
432.83	1320.11
433.19	1333.57
433.56	1345.18
433.92	1361.98
434.29	1383.96
434.65	1406.45
435.02	1429.37
435.38	1461.10
435.75	1488.63
436.11	1517.42
436.48	1546.65
436.84	1585.90
437.21	1622.93
437.57	1660.56
437.94	1702.93
438.30	1749.43
438.67	1797.53
439.03	1848.09
439.40	1901.19
439.76	1950.25
440.13	2011.32
440.49	2072.85
440.86	2133.98
441.22	2210.68
441.59	2289.70
441.95	2365.79
442.32	2450.03
442.68	2546.29
443.05	2640.38
443.41	2734.99
443.78	2839.02
444.14	2944.02
444.51	3058.24
444.87	3194.62
445.24	3341.72
445.60	3495.85
445.96	3650.28
446.33	3817.65
446.69	3975.94
447.06	4157.42
447.42	4337.74
447.79	4535.79
448.15	4759.36
448.51	4993.44
448.88	5256.80
449.24	5496.65
449.61	5774.34
449.97	6050.78
450.33	6333.77
450.70	6584.07
451.06	6908.14
451.43	7212.88
451.79	7567.49
452.15	7976.87
452.52	8435.31
452.88	8915.90
453.24	9450.31
453.61	10031.51
453.97	10578.14
454.34	11127.96
454.70	11771.40
455.06	12409.80
455.43	13046.26
455.79	13649.65
456.15	14365.90
456.52	15005.81
456.88	15791.90
457.24	16510.86
457.61	17366.35
457.97	18117.06
458.33	18913.66
458.70	19658.21
459.06	20415.79
459.42	21251.57
459.79	22037.95
460.15	22941.88
460.51	23826.42
460.88	24754.07
461.24	25543.79
461.60	26523.18
461.96	27381.23
462.33	28206.87
462.69	28989.01
463.05	29830.97
463.42	30524.28
463.78	31171.21
464.14	31698.93
464.50	32274.33
464.87	32743.56
465.23	33093.56
465.59	33444.78
465.95	33762.11
466.32	34032.70
466.68	34257.18
467.04	34393.91
467.40	34535.00
467.77	34689.41
468.13	34684.56
468.49	34600.96
468.85	34554.94
469.22	34384.04
469.58	34054.68
469.94	33786.26
470.30	33481.83
470.66	33053.86
471.03	32473.34
471.39	32082.54
471.75	31462.42
472.11	30868.44
472.47	30512.39
472.84	30192.82
473.20	29711.35
473.56	29442.51
473.92	29011.22
474.28	28494.45
474.65	28014.71
475.01	27533.95
475.37	26971.91
475.73	26510.87
476.09	25986.57
476.45	25461.92
476.81	24948.71
477.18	24416.19
477.54	23960.98
477.90	23595.39
478.26	23161.71
478.62	22814.40
478.98	22523.61
479.34	22213.86
479.71	21797.71
480.07	21464.49
480.43	21097.50
480.79	20673.44
481.15	20310.16
481.51	20005.78
481.87	19734.95
482.23	19452.19
482.59	19213.41
482.96	18928.64
483.32	18624.88
483.68	18249.95
484.04	17908.47
484.40	17554.04
484.76	17195.00
485.12	16840.11
485.48	16535.25
485.84	16189.74
486.20	15822.58
486.56	15468.34
486.92	15146.68
487.28	14787.11
487.64	14419.34
488.00	14104.40
488.37	13752.61
488.73	13389.17
489.09	13040.34
489.45	12730.24
489.81	12405.96
490.17	12133.64
490.53	11852.33
490.89	11556.18
491.25	11251.66
491.61	10954.81
491.97	10626.20
492.33	10307.16
492.69	10011.43
493.05	9712.68
493.41	9414.64
493.77	9136.02
494.13	8879.85
494.49	8628.43
494.85	8396.51
495.21	8176.85
495.57	7966.50
495.93	7749.65
496.29	7553.12
496.64	7359.91
497.00	7156.91
497.36	6962.27
497.72	6778.73
498.08	6591.81
498.44	6407.26
498.80	6250.03
499.16	6087.64
499.52	5935.76
499.88	5807.24
500.24	5691.97
500.60	5564.30
500.96	5452.84
501.32	5336.23
501.68	5206.19
502.03	5078.75
502.39	4960.63
502.75	4821.34
503.11	4692.66
503.47	4575.49
503.83	4454.06
504.19	4329.94
504.55	4229.32
504.91	4137.76
505.26	4047.35
505.62	3962.90
505.98	3875.65
506.34	3784.69
506.70	3688.36
507.06	3599.23
507.42	3508.49
507.78	3433.07
508.13	3362.34
508.49	3286.65
508.85	3214.52
509.21	3147.79
509.57	3077.66
509.93	3004.48
510.28	2941.77
510.64	2878.67
511.00	2814.89
511.36	2759.28
511.72	2708.75
512.07	2660.53
512.43	2611.43
512.79	2562.30
513.15	2510.65
513.51	2460.89
513.86	2413.86
514.22	2373.35
514.58	2332.93
514.94	2296.81
515.30	2262.46
515.65	2228.14
516.01	2197.15
516.37	2164.50
516.73	2135.53
517.08	2109.45
517.44	2079.50
517.80	2043.45
518.16	2018.43
518.51	1986.39
518.87	1954.28
519.23	1926.96
519.59	1903.32
519.94	1876.57
520.30	1857.89
520.66	1834.21
521.01	1809.40
521.37	1790.16
521.73	1772.70
522.09	1753.15
522.44	1735.53
522.80	1719.40
523.16	1697.12
523.51	1673.37
523.87	1649.87
524.23	1632.69
524.58	1611.46
524.94	1592.80
525.30	1574.31
525.65	1559.83
526.01	1540.77
526.37	1525.33
526.72	1510.21
527.08	1503.16
527.44	1491.25
527.79	1480.72
528.15	1472.62
528.51	1462.55
528.86	1445.42
529.22	1432.06
529.58	1418.88
529.93	1409.66
530.29	1401.49
530.65	1393.48
531.00	1385.43
531.36	1376.91
531.71	1365.09
532.07	1354.09
532.43	1342.23
532.78	1334.04
533.14	1329.71
533.49	1322.61
533.85	1316.34
534.21	1310.77
534.56	1302.46
534.92	1293.24
535.27	1284.86
535.63	1281.84
535.98	1277.44
536.34	1272.88
536.69	1267.77
537.05	1263.59
537.41	1254.76
537.76	1250.69
538.12	1245.54
538.47	1241.58
538.83	1238.45
539.18	1233.18
539.54	1228.90
539.89	1224.90
540.25	1219.42
540.60	1216.26
540.96	1215.65
541.31	1210.34
541.67	1211.51
542.02	1209.99
542.38	1207.25
542.73	1200.67
543.09	1197.75
543.44	1189.86
543.80	1188.13
544.15	1182.37
544.51	1183.77
544.86	1181.64
545.22	1179.44
545.57	1175.81
545.93	1174.88
546.28	1168.89
546.64	1168.84
546.99	1168.28
547.35	1165.66
547.70	1163.62
548.05	1162.50
548.41	1159.76
548.76	1155.97
549.12	1151.10
549.47	1150.58
549.83	1150.23
550.18	1148.36
550.53	1146.75
550.89	1146.91
551.24	1143.30
551.60	1139.84
551.95	1137.41
552.30	1138.37
552.66	1138.88
553.01	1139.93
553.37	1141.29
553.72	1139.05
554.07	1134.88
554.43	1132.30
554.78	1126.78
555.13	1125.63
555.49	1124.18
555.84	1122.45
556.19	1124.02
556.55	1126.36
556.90	1122.33
557.26	1125.49
557.61	1124.32
557.96	1121.02
558.32	1119.57
558.67	1119.97
559.02	1118.28
559.37	1117.75
559.73	1119.01
560.08	1121.63
560.43	1121.56
560.79	1118.10
561.14	1120.44
561.49	1117.18
561.85	1112.64
562.20	1110.75
562.55	1107.38
562.90	1105.22
563.26	1103.52
563.61	1104.29
563.96	1104.99
564.32	1110.23
564.67	1112.20
565.02	1114.94
565.37	1114.33
565.73	1113.09
566.08	1110.49
566.43	1108.24
566.78	1106.91
567.14	1103.00
567.49	1102.16
567.84	1102.49
568.19	1101.85
568.54	1099.61
568.90	1101.25
569.25	1101.50
569.60	1102.44
569.95	1099.56
570.31	1101.41
570.66	1101.01
571.01	1098.41
571.36	1096.40
571.71	1099.30
572.06	1096.52
572.42	1094.81
572.77	1097.48
573.12	1096.10
573.47	1094.95
573.82	1098.46
574.18	1098.98
574.53	1095.46
574.88	1094.72
575.23	1096.70
575.58	1092.77
575.93	1095.37
576.28	1098.58
576.64	1099.54
576.99	1098.11
577.34	1101.27
577.69	1097.08
578.04	1091.91
578.39	1094.72
578.74	1093.83
579.09	1090.36
579.44	1091.98
579.80	1098.09
580.15	1095.39
580.50	1092.82
580.85	1095.63
581.20	1096.00
581.55	1092.82
581.90	1093.52
582.25	1094.55
582.60	1091.98
582.95	1093.66
583.30	1092.42
583.65	1091.02
584.00	1094.01
584.35	1092.77
584.71	1092.12
585.06	1096.35
585.41	1096.28
585.76	1091.39
586.11	1093.76
586.46	1091.27
586.81	1088.04
587.16	1089.71
587.51	1090.78
587.86	1087.65
588.21	1087.58
588.56	1087.34
588.91	1084.72
589.26	1084.32
589.61	1084.65
589.96	1083.81
590.31	1079.95
590.66	1078.26
591.01	1081.37
591.36	1083.25
591.71	1085.80
592.06	1086.43
592.41	1091.37
592.76	1087.18
593.10	1085.40
593.45	1084.11
593.80	1087.58
594.15	1084.63
594.50	1085.07
594.85	1088.47
595.20	1089.50
595.55	1088.16
595.90	1089.05
596.25	1091.60
596.60	1092.07
596.95	1089.00
597.30	1090.36
597.64	1099.98
597.99	1100.36
598.34	1097.73
598.69	1095.53
599.04	1093.57
599.39	1080.91
599.74	1078.12
600.09	1075.52
600.44	1078.61
600.78	1078.26
601.13	1079.74
601.48	1080.41
601.83	1083.15
602.18	1084.04
602.53	1087.93
602.88	1088.35
603.22	1090.92
603.57	1089.52
603.92	1089.54
604.27	1086.01
604.62	1088.26
604.97	1084.14
605.31	1083.71
605.66	1081.82
606.01	1082.38
606.36	1078.47
606.71	1079.50
607.05	1080.13
607.40	1082.80
607.75	1084.98
608.10	1086.83
608.44	1086.92
608.79	1088.63
609.14	1085.56
609.49	1082.64
609.84	1080.84
610.18	1079.10
610.53	1077.65
610.88	1081.02
611.23	1083.34
611.57	1084.98
611.92	1088.09
612.27	1086.17
612.62	1082.29
612.96	1082.59
613.31	1079.06
613.66	1078.17
614.00	1080.79
614.35	1081.84
614.70	1084.93
615.05	1086.45
615.39	1086.15
615.74	1086.71
616.09	1087.46
616.43	1083.32
616.78	1086.94
617.13	1085.03
617.47	1084.93
617.82	1086.20
618.17	1085.00
618.51	1084.00
618.86	1084.77
619.21	1082.92
619.55	1082.69
619.90	1084.37
620.25	1082.31
620.59	1083.93
620.94	1086.29
621.29	1086.31
621.63	1086.08
621.98	1090.46
622.32	1090.08
622.67	1087.16
623.02	1088.56
623.36	1088.70
623.71	1085.12
624.05	1086.34
624.40	1084.70
624.75	1079.76
625.09	1079.46
625.44	1080.34
625.78	1076.93
626.13	1081.75
626.48	1082.76
626.82	1082.57
627.17	1085.66
627.51	1087.23
627.86	1085.63
628.20	1088.00
628.55	1089.26
628.89	1085.56
629.24	1083.97
629.58	1082.31
629.93	1082.40
630.28	1080.34
630.62	1080.53
630.97	1083.46
631.31	1084.11
631.66	1083.67
632.00	1084.74
632.35	1086.66
632.69	1084.84
633.04	1086.08
633.38	1087.58
633.73	1085.42
634.07	1084.25
634.42	1082.78
634.76	1080.91
635.11	1076.67
635.45	1080.06
635.79	1076.39
636.14	1077.47
636.48	1078.33
636.83	1083.13
637.17	1080.23
637.52	1084.14
637.86	1084.39
638.21	1082.22
638.55	1080.04
638.89	1082.17
639.24	1082.38
639.58	1079.71
639.93	1083.11
640.27	1082.64
640.61	1081.12
640.96	1079.92
641.30	1086.20
641.65	1084.14
641.99	1084.39
642.33	1083.81
642.68	1082.97
643.02	1078.10
643.37	1077.35
643.71	1073.49
644.05	1075.27
644.40	1075.29
644.74	1076.60
645.08	1076.25
645.43	1078.71
645.77	1076.41
646.11	1077.58
646.46	1074.35
646.80	1078.17
647.14	1079.78
647.49	1081.51
647.83	1079.67
648.17	1086.10
648.52	1081.98
648.86	1079.29
649.20	1076.76
649.55	1077.21
649.89	1076.69
650.23	1080.18
650.57	1084.37
650.92	1085.10
651.26	1084.98
651.60	1081.21
651.95	1080.95
652.29	1078.50
652.63	1079.48
652.97	1081.73
653.32	1081.35
653.66	1081.12
654.00	1081.23
654.34	1083.41
654.69	1084.51
655.03	1089.45
655.37	1089.80
655.71	1088.68
656.05	1089.92
656.40	1086.38
656.74	1083.79
657.08	1082.94
657.42	1082.17
657.76	1081.16
658.11	1081.00
658.45	1081.42
658.79	1082.52
659.13	1086.29
659.47	1085.03
659.82	1086.06
660.16	1087.41
660.50	1086.31
660.84	1085.70
661.18	1082.10
661.52	1079.17
661.87	1077.47
662.21	1078.03
662.55	1078.24
662.89	1081.82
663.23	1085.73
663.57	1086.45
663.91	1085.03
664.25	1083.53
664.60	1082.22
664.94	1083.08
665.28	1081.16
665.62	1080.46
665.96	1081.73
666.30	1079.97
666.64	1079.48
666.98	1079.13
667.32	1077.86
667.66	1074.89
668.01	1076.95
668.35	1074.24
668.69	1076.13
669.03	1078.38
669.37	1078.94
669.71	1079.03
670.05	1083.46
670.39	1084.53
670.73	1081.91
671.07	1083.04
671.41	1082.94
671.75	1080.48
672.09	1078.50
672.43	1079.97
672.77	1080.77
673.11	1080.25
673.45	1078.21
673.79	1078.21
674.13	1077.23
674.47	1077.63
674.81	1076.30
675.15	1078.21
675.49	1077.58
675.83	1075.99
676.17	1073.84
676.51	1074.26
676.85	1072.85
677.19	1072.62
677.53	1076.81
677.87	1080.06
678.21	1080.51
678.55	1081.56
678.89	1084.21
679.23	1083.22
679.57	1079.90
679.90	1081.26
680.24	1083.18
680.58	1082.15
680.92	1082.22
681.26	1082.78
681.60	1082.71
681.94	1081.19
682.28	1082.52
682.62	1082.92
682.96	1086.83
683.29	1086.55
683.63	1084.86
683.97	1080.88
684.31	1082.78
684.65	1079.13
684.99	1079.03
685.33	1079.67
685.67	1082.71
686.00	1079.48
686.34	1079.92
686.68	1080.25
687.02	1078.99
687.36	1076.58
687.70	1077.77
688.03	1078.47
688.37	1078.24
688.71	1081.19
689.05	1082.61
689.39	1083.76
689.72	1081.09
690.06	1081.54
690.40	1079.22
690.74	1078.85
691.08	1080.65
691.41	1082.24
691.75	1080.79
692.09	1081.91
692.43	1081.40
692.76	1077.09
693.10	1076.76
693.44	1077.35
693.78	1080.37
694.11	1083.46
694.45	1081.54
694.79	1082.40
695.13	1082.17
695.46	1081.30
695.80	1078.57
696.14	1082.94
696.48	1083.15
696.81	1083.15
697.15	1079.67
697.49	1079.10
697.82	1077.61
698.16	1074.70
698.50	1073.51
698.83	1071.85
699.17	1070.49
699.51	1071.61
699.84	1073.04
700.18	1073.91
700.52	1076.88
700.85	1078.10
701.19	1076.90
701.53	1081.05
701.86	1084.96
702.20	1082.01
702.54	1082.38
702.87	1085.21
703.21	1082.97
703.55	1078.36
703.88	1080.20
704.22	1081.68
704.55	1080.95
704.89	1077.77
705.23	1079.62
705.56	1081.49
705.90	1081.21
706.23	1080.53
706.57	1082.36
706.91	1080.74
707.24	1080.70
707.58	1082.78
707.91	1085.31
708.25	1087.62
708.58	1092.45
708.92	1087.72
709.26	1082.97
709.59	1079.43
709.93	1077.02
710.26	1074.68
710.60	1078.36
710.93	1082.26
711.27	1080.95
711.60	1081.58
711.94	1081.63
712.27	1082.36
712.61	1081.12
712.94	1080.23
713.28	1078.87
713.61	1077.28
713.95	1074.94
714.28	1076.08
714.62	1078.66
714.95	1078.07
715.29	1078.92
715.62	1082.38
715.96	1080.77
716.29	1080.51
716.63	1083.36
716.96	1083.39
717.29	1084.28
717.63	1081.26
717.96	1081.40
718.30	1079.69
718.63	1078.24
718.97	1078.50
719.30	1081.02
719.63	1078.43
719.97	1078.75
720.30	1078.10
720.64	1074.19
720.97	1077.51
721.30	1081.23
721.64	1081.44
721.97	1082.33
722.31	1084.46
722.64	1083.83
722.97	1083.29
723.31	1082.94
723.64	1081.68
723.97	1078.21
724.31	1073.93
724.64	1074.40
724.98	1074.98
725.31	1075.83
725.64	1077.65
725.98	1081.44
726.31	1078.73
726.64	1079.03
726.97	1080.32
727.31	1082.52
727.64	1082.80
727.97	1081.23
728.31	1079.76
728.64	1081.89
728.97	1079.36
729.31	1076.25
729.64	1078.92
729.97	1081.12
730.30	1079.41
730.64	1080.60
730.97	1082.87
731.30	1083.67
731.63	1083.67
731.97	1081.84
732.30	1080.84
732.63	1081.44
732.96	1081.87
733.30	1079.34
733.63	1078.80
733.96	1077.00
734.29	1075.34
734.63	1074.87
734.96	1079.64
735.29	1084.86
735.62	1085.40
735.95	1083.97
736.29	1082.05
736.62	1077.89
736.95	1074.82
737.28	1075.15
737.61	1077.42
737.94	1078.50
738.28	1076.74
738.61	1078.03
738.94	1080.53
739.27	1079.78
739.60	1078.78
739.93	1083.90
740.27	1080.56
740.60	1080.32
740.93	1081.66
741.26	1085.49
741.59	1085.33
741.92	1086.43
742.25	1083.74
742.58	1082.24
742.91	1079.78
743.25	1071.99
743.58	1073.02
743.91	1076.88
744.24	1077.28
744.57	1077.93
744.90	1082.33
745.23	1077.84
745.56	1076.46
745.89	1075.87
746.22	1076.83
746.55	1075.50
746.88	1079.62
747.21	1080.95
747.54	1080.37
747.87	1079.03
748.20	1076.48
748.53	1074.47
748.87	1071.97
749.20	1074.33
749.53	1076.46
749.86	1080.51
750.19	1083.48
750.52	1082.87
750.85	1080.16
751.18	1080.86
751.51	1082.87
751.84	1081.51
752.16	1081.37
752.49	1080.37
752.82	1079.27
753.15	1077.37
753.48	1076.86
753.81	1080.81
754.14	1080.72
754.47	1079.38
754.80	1079.60
755.13	1081.94
755.46	1082.33
755.79	1085.47
756.12	1084.89
756.45	1085.49
756.78	1083.32
757.11	1078.07
757.43	1077.89
757.76	1077.56
758.09	1078.92
758.42	1077.96
758.75	1082.36
759.08	1080.91
759.41	1079.83
759.74	1079.57
760.07	1081.84
760.39	1075.69
760.72	1077.40
761.05	1080.53
761.38	1076.60
761.71	1076.15
762.04	1079.81
762.36	1081.07
762.69	1081.68
763.02	1084.84
763.35	1081.47
763.68	1082.22
764.01	1080.13
764.33	1078.99
764.66	1079.48
764.99	1081.66
765.32	1081.54
765.65	1082.73
765.97	1079.57
766.30	1076.27
766.63	1075.13
766.96	1077.00
767.28	1074.40
767.61	1076.46
767.94	1080.23
768.27	1081.23
768.59	1075.78
768.92	1074.35
769.25	1076.13
769.58	1073.37
769.90	1075.55
770.23	1079.22
770.56	1082.38
770.89	1079.50
771.21	1082.26
771.54	1083.11
771.87	1082.12
772.19	1082.69
772.52	1084.07
772.85	1082.83
773.17	1080.39
773.50	1081.77
773.83	1082.40
774.15	1082.19
774.48	1080.91
774.81	1080.60
775.13	1079.53
775.46	1077.98
775.79	1078.24
776.11	1079.60
776.44	1081.91
776.77	1085.33
777.09	1082.54
777.42	1081.49
777.74	1080.65
778.07	1080.70
778.40	1076.88
778.72	1079.83
779.05	1078.94
779.37	1078.71
779.70	1076.55
780.03	1075.27
780.35	1078.61
780.68	1083.13
781.00	1085.75
781.33	1085.84
781.65	1087.95
781.98	1085.89
782.31	1082.31
782.63	1079.22
782.96	1081.07
783.28	1078.14
783.61	1075.03
783.93	1075.92
784.26	1074.49
784.58	1072.36
784.91	1075.55
785.23	1075.71
785.56	1077.07
785.88	1079.85
786.21	1081.75
786.53	1083.27
786.86	1084.79
787.18	1084.84
787.51	1084.35
787.83	1082.71
788.16	1082.50
788.48	1080.95
788.81	1079.57
789.13	1079.60
789.46	1081.30
789.78	1075.78
790.10	1077.54
790.43	1076.93
790.75	1078.64
791.08	1073.81
791.40	1075.83
791.73	1074.75
792.05	1074.10
792.37	1073.51
792.70	1080.37
793.02	1080.70
793.35	1079.46
793.67	1080.81
793.99	1080.60
794.32	1074.47
794.64	1074.38
794.96	1077.68
795.29	1075.36
795.61	1073.16
795.93	1077.56
796.26	1075.64
796.58	1075.43
796.91	1075.87
797.23	1080.06
797.55	1078.89
797.87	1082.52
798.20	1078.96
798.52	1079.81
798.84	1077.70
799.17	1075.85
799.49	1076.23
799.81	1080.18
800.14	1083.64
800.46	1082.22
800.78	1084.79
801.10	1082.05
801.43	1080.81
801.75	1077.96
802.07	1078.89
802.40	1079.29
802.72	1081.23
803.04	1082.40
803.36	1081.07
803.69	1078.89
804.01	1078.38
804.33	1080.06
804.65	1079.76
804.97	1081.26
805.30	1085.56
805.62	1086.13
805.94	1084.74
806.26	1082.90
806.58	1084.04
806.91	1081.91
807.23	1079.88
807.55	1080.37
807.87	1080.58
808.19	1076.08
808.52	1076.95
808.84	1077.58
809.16	1078.43
809.48	1081.61
809.80	1084.18
810.12	1081.89
810.44	1081.37
810.77	1080.98
811.09	1079.62
811.41	1080.81
811.73	1083.46
812.05	1083.57
812.37	1081.51
812.69	1083.53
813.01	1082.50
813.33	1078.47
813.66	1078.21
813.98	1077.86
814.30	1077.04
814.62	1075.87
814.94	1078.00
815.26	1080.16
815.58	1080.72
815.90	1078.14
816.22	1078.92
816.54	1081.02
816.86	1078.52
817.18	1079.60
817.50	1079.15
817.82	1080.37
818.14	1077.42
818.46	1079.78
818.78	1080.74
819.10	1081.80
819.42	1080.93
819.74	1080.81
820.06	1075.64
820.38	1075.20
820.70	1075.62
821.02	1079.29
821.34	1081.91
821.66	1082.80
821.98	1082.33
822.30	1081.89
822.62	1080.81
822.94	1079.69
823.26	1082.64
823.58	1082.83
823.90	1082.33
824.22	1077.89
824.54	1075.85
824.86	1075.13
825.18	1073.35
825.50	1076.30
825.81	1076.72
826.13	1078.96
826.45	1079.46
826.77	1080.93
827.09	1075.97
827.41	1078.36
827.73	1076.97
828.05	1075.52
828.36	1074.33
828.68	1074.66
829.00	1076.20
829.32	1076.44
829.64	1079.13
829.96	1076.67
830.28	1075.45
830.59	1071.66
830.91	1072.78
831.23	1073.02
831.55	1074.70
831.87	1074.00
832.19	1077.18
832.50	1076.58
832.82	1076.51
833.14	1073.79
833.46	1078.92
833.78	1075.05
834.09	1072.25
834.41	1069.91
834.73	1073.23
835.05	1068.67
835.36	1070.40
835.68	1071.54
836.00	1072.95
836.32	1074.35
836.63	1079.08
836.95	1081.68
837.27	1085.05
837.59	1084.84
837.90	1083.27
838.22	1079.71
838.54	1075.64
838.85	1074.14
839.17	1075.34
839.49	1075.94
839.80	1079.24
840.12	1082.69
840.44	1080.81
840.76	1078.82
841.07	1077.91
841.39	1077.28
841.71	1075.41
842.02	1075.55
842.34	1075.08
842.65	1075.90
842.97	1071.50
843.29	1069.86
843.60	1072.06
843.92	1069.30
844.24	1070.63
844.55	1071.94
844.87	1073.93
845.18	1071.50
845.50	1075.62
845.82	1071.03
846.13	1070.56
846.45	1069.30
846.76	1070.26
847.08	1070.82
847.40	1073.09
847.71	1075.36
848.03	1075.94
848.34	1076.15
848.66	1077.11
848.97	1079.62
849.29	1078.82
849.60	1077.30
849.92	1076.51
850.24	1074.19
850.55	1074.00
850.87	1077.09
851.18	1076.20
851.50	1075.22
851.81	1074.35
852.13	1074.24
852.44	1072.15
852.76	1072.53
853.07	1072.15
853.39	1071.61
853.70	1071.92
854.01	1067.82
854.33	1069.04
854.64	1072.08
854.96	1072.29
855.27	1068.71
855.59	1075.08
855.90	1076.79
856.22	1076.74
856.53	1077.51
856.84	1079.81
857.16	1079.41
857.47	1079.69
857.79	1082.52
858.10	1083.04
858.41	1083.04
858.73	1082.24
859.04	1082.78
859.36	1081.49
859.67	1080.74
859.98	1082.57
860.30	1081.61
860.61	1078.89
860.92	1078.75
861.24	1080.37
861.55	1077.04
861.87	1077.14
862.18	1078.33
862.49	1077.37
862.81	1075.80
863.12	1076.72
863.43	1076.37
863.74	1079.76
864.06	1078.45
864.37	1080.79
864.68	1081.56
865.00	1082.59
865.31	1080.30
865.62	1080.20
865.94	1077.40
866.25	1078.96
866.56	1080.60
866.87	1077.91
867.19	1077.11
867.50	1081.91
867.81	1078.75
868.12	1076.30
868.44	1077.11
868.75	1078.54
869.06	1077.07
869.37	1077.30
869.68	1077.63
870.00	1078.40
870.31	1077.47
870.62	1077.11
870.93	1077.61
871.24	1075.66
871.56	1078.28
871.87	1078.71
872.18	1078.59
872.49	1077.58
872.80	1078.07
873.12	1077.65
873.43	1077.35
873.74	1075.57
874.05	1075.15
874.36	1076.58
874.67	1073.37
874.98	1076.51
875.29	1075.90
875.61	1080.91
875.92	1080.11
876.23	1080.37
876.54	1077.11
876.85	1078.71
877.16	1077.18
877.47	1079.76
877.78	1081.47
878.09	1080.27
878.40	1080.77
878.72	1079.38
879.03	1076.97
879.34	1077.16
879.65	1078.26
879.96	1077.77
880.27	1079.06
880.58	1077.42
880.89	1076.20
881.20	1076.48
881.51	1076.39
881.82	1075.34
882.13	1075.13
882.44	1075.71
882.75	1077.51
883.06	1077.75
883.37	1076.32
883.68	1080.23
883.99	1080.37
884.30	1077.98
884.61	1074.33
884.92	1074.82
885.23	1072.64
885.54	1071.78
885.85	1073.81
886.16	1077.33
886.47	1076.18
886.78	1076.97
887.08	1079.69
887.39	1078.47
887.70	1077.49
888.01	1079.20
888.32	1077.35
888.63	1074.52
888.94	1074.91
889.25	1072.39
889.56	1070.56
889.87	1069.95
890.17	1066.79
890.48	1070.35
890.79	1071.03
891.10	1074.33
891.41	1073.14
891.72	1075.13
892.03	1072.46
892.34	1074.49
892.64	1072.43
892.95	1074.40
893.26	1075.94
893.57	1073.84
893.88	1074.66
894.18	1075.64
894.49	1075.62
894.80	1075.66
895.11	1076.69
895.42	1074.21
895.72	1072.18
896.03	1072.55
896.34	1073.93
896.65	1075.71
896.96	1077.54
897.26	1078.52
897.57	1080.41
897.88	1078.05
898.19	1077.84
898.49	1078.24
898.80	1076.69
899.11	1073.02
899.41	1074.68
899.72	1074.66
900.03	1076.76
900.34	1079.24
900.64	1081.49
900.95	1080.23
901.26	1079.99
901.56	1077.44
901.87	1075.24
902.18	1074.17
902.48	1072.04
902.79	1072.01
903.10	1075.90
903.40	1079.99
903.71	1081.35
904.02	1081.80
904.32	1082.45
904.63	1079.83
904.94	1079.57
905.24	1079.50
905.55	1081.05
905.85	1079.46
906.16	1081.07
906.47	1080.27
906.77	1079.34
907.08	1079.97
907.38	1076.93
907.69	1076.30
908.00	1074.70
908.30	1075.45
908.61	1075.05
908.91	1075.55
909.22	1072.78
909.52	1074.12
909.83	1075.66
910.14	1077.14
910.44	1081.87
910.75	1081.12
911.05	1079.34
911.36	1075.57
911.66	1073.98
911.97	1073.07
912.27	1070.44
912.58	1072.57
912.88	1075.01
913.19	1075.03
913.49	1073.09
913.80	1076.69
914.10	1076.18
914.41	1076.53
914.71	1077.30
915.01	1078.14
915.32	1078.64
915.62	1076.04
915.93	1074.59
916.23	1074.45
916.54	1073.93
916.84	1072.46
917.15	1074.45
917.45	1075.71
917.75	1076.37
918.06	1075.55
918.36	1073.49
918.67	1075.01
918.97	1076.34
919.27	1074.61
919.58	1073.35
919.88	1075.83
920.18	1075.03
920.49	1073.14
920.79	1072.04
921.10	1075.50
921.40	1076.62
921.70	1076.62
922.01	1075.38
922.31	1076.74
922.61	1076.11
922.92	1078.36
923.22	1078.52
923.52	1079.48
923.82	1082.66
924.13	1085.49
924.43	1085.03
924.73	1085.82
925.04	1086.38
925.34	1084.46
925.64	1082.87
925.94	1080.67
926.25	1081.70
926.55	1083.29
926.85	1086.29
927.15	1083.46
927.46	1083.79
927.76	1080.25
928.06	1076.23
928.36	1074.73
928.67	1077.56
928.97	1075.41
929.27	1075.43
929.57	1077.51
929.87	1074.87
930.18	1072.69
930.48	1072.69
930.78	1070.98
931.08	1070.82
931.38	1070.37
931.69	1069.72
931.99	1071.29
932.29	1074.56
932.59	1071.50
932.89	1070.68
933.19	1070.37
933.49	1069.70
933.80	1069.70
934.10	1075.34
934.40	1075.45
934.70	1077.79
935.00	1078.21
935.30	1078.47
935.60	1075.36
935.90	1075.99
936.20	1070.94
936.50	1071.33
936.81	1071.85
937.11	1074.14
937.41	1073.79
937.71	1075.71
938.01	1076.86
938.31	1075.27
938.61	1073.51
938.91	1074.03
939.21	1075.99
939.51	1073.63
939.81	1070.56
940.11	1072.15
940.41	1073.39
940.71	1073.95
941.01	1075.24
941.31	1077.44
941.61	1074.89
941.91	1074.24
942.21	1073.63
942.51	1073.46
942.81	1074.14
943.11	1077.91
943.41	1074.42
943.71	1074.68
944.01	1074.19
944.31	1072.60
944.61	1068.67
944.90	1072.41
945.20	1070.44
945.50	1070.07
945.80	1072.97
946.10	1075.73
946.40	1078.38
946.70	1081.96
947.00	1081.49
947.30	1081.14
947.60	1081.37
947.89	1082.57
948.19	1081.30
948.49	1080.79
948.79	1080.93
949.09	1079.55
949.39	1075.64
949.69	1071.17
949.98	1071.36
950.28	1070.44
950.58	1076.44
950.88	1078.64
951.18	1084.11
951.48	1084.98
951.77	1086.69
952.07	1081.87
952.37	1080.09
952.67	1082.47
952.97	1081.73
953.26	1079.85
953.56	1077.40
953.86	1077.91
954.16	1071.92
954.45	1071.43
954.75	1074.21
955.05	1076.90
955.35	1074.54
955.64	1074.98
955.94	1077.04
956.24	1073.93
956.54	1072.60
956.83	1073.88
957.13	1073.77
957.43	1075.34
957.72	1075.43
958.02	1078.03
958.32	1081.12
958.61	1084.16
958.91	1085.10
959.21	1084.60
959.50	1082.57
959.80	1078.12
960.10	1076.34
960.39	1075.97
960.69	1076.18
960.99	1074.24
961.28	1077.35
961.58	1079.95
961.87	1075.62
962.17	1077.86
962.47	1080.56
962.76	1078.71
963.06	1076.88
963.36	1082.24
963.65	1082.97
963.95	1082.33
964.24	1085.80
964.54	1084.23
964.83	1078.89
965.13	1078.50
965.42	1075.13
965.72	1069.62
966.02	1072.95
966.31	1072.95
966.61	1070.51
966.90	1073.84
967.20	1077.47
967.49	1075.90
967.79	1075.85
968.08	1075.90
968.38	1075.15
968.67	1076.30
968.97	1076.44
969.26	1079.85
969.56	1080.79
969.85	1078.24
970.15	1075.13
970.44	1074.03
970.74	1071.82
971.03	1070.91
971.32	1071.24
971.62	1069.74
971.91	1072.29
972.21	1074.54
972.50	1074.28
972.80	1077.51
973.09	1080.65
973.38	1076.46
973.68	1075.41
973.97	1078.75
974.27	1080.32
974.56	1079.29
974.85	1081.28
975.15	1081.89
975.44	1080.65
975.73	1078.75
976.03	1080.41
976.32	1081.35
976.61	1079.62
976.91	1080.13
977.20	1077.70
977.49	1073.51
977.79	1072.85
978.08	1074.75
978.37	1073.58
978.67	1072.25
978.96	1075.13
979.25	1072.90
979.55	1074.14
979.84	1073.56
980.13	1077.42
980.42	1078.28
980.72	1082.05
981.01	1082.22
981.30	1082.52
981.59	1083.90
981.89	1083.53
982.18	1082.69
982.47	1082.19
982.76	1082.59
983.06	1080.20
983.35	1079.15
983.64	1078.12
983.93	1076.06
984.22	1072.13
984.52	1073.02
984.81	1074.40
985.10	1074.40
985.39	1074.77
985.68	1077.18
985.97	1078.05
986.27	1078.64
986.56	1080.16
986.85	1081.94
987.14	1082.50
987.43	1080.84
987.72	1079.99
988.01	1076.37
988.31	1074.03
988.60	1072.64
988.89	1072.85
989.18	1072.76
989.47	1074.63
989.76	1076.93
990.05	1079.34
990.34	1077.51
990.63	1077.84
990.92	1079.67
991.21	1076.72
991.51	1076.55
991.80	1077.56
992.09	1078.26
992.38	1074.68
992.67	1075.99
992.96	1073.72
993.25	1074.82
993.54	1073.07
993.83	1075.41
994.12	1074.59
994.41	1075.69
994.70	1074.70
994.99	1075.29
995.28	1074.49
995.57	1075.59
995.86	1076.13
996.15	1076.81
996.44	1078.10
996.73	1078.82
997.02	1080.25
997.31	1078.47
997.59	1076.95
997.88	1076.25
998.17	1075.59
998.46	1073.39
998.75	1075.05
999.04	1076.34
999.33	1080.84
999.62	1080.63
999.91	1081.05
1000.20	1078.99
1000.49	1079.95
1000.77	1073.93
1001.06	1074.42
1001.35	1076.72
1001.64	1079.92
1001.93	1080.32
1002.22	1081.58
1002.51	1082.31
1002.79	1077.47
1003.08	1076.93
1003.37	1077.16
1003.66	1077.49
1003.95	1077.63
1004.23	1081.51
1004.52	1078.26
1004.81	1078.05
1005.10	1077.79
1005.39	1076.51
1005.67	1076.18
1005.96	1080.16
1006.25	1080.27
1006.54	1080.72
1006.83	1080.95
1007.11	1081.30
1007.40	1078.00
1007.69	1077.21
1007.97	1076.62
1008.26	1075.69
1008.55	1074.68
1008.84	1076.72
1009.12	1075.83
1009.41	1073.56
1009.70	1073.86
1009.98	1074.61
1010.27	1076.72
1010.56	1078.26
1010.85	1081.63
1011.13	1084.25
1011.42	1084.25
1011.71	1081.96
1011.99	1081.89
1012.28	1079.76
1012.56	1078.92
1012.85	1076.04
1013.14	1075.41
1013.42	1073.25
1013.71	1073.21
1014.00	1072.41
1014.28	1073.39
1014.57	1075.13
1014.85	1074.40
1015.14	1075.20
1015.43	1077.25
1015.71	1074.87
1016.00	1075.05
1016.28	1075.94
1016.57	1074.19
1016.85	1074.07
1017.14	1077.58
1017.43	1076.79
1017.71	1077.35
1018.00	1077.14
1018.28	1077.70
1018.57	1078.24
1018.85	1076.46
1019.14	1077.40
1019.42	1078.99
1019.71	1075.90
1019.99	1076.37
1020.28	1077.89
1020.56	1075.24
1020.85	1077.51
1021.13	1077.07
1021.42	1072.55
1021.70	1072.32
1021.99	1072.43
1022.27	1067.73
1022.55	1066.70
1022.84	1064.36
>>>>>End Processed Spectral Data<<<<<
