SpectraSuite Data File
++++++++++++++++++++++++++++++++++++
Date: Mon Aug 26 10:21:52 PDT 2019
User: corrico
Dark Spectrum Present: No
Reference Spectrum Present: No
Number of Sampled Component Spectra: 1
Spectrometers: USB2+H06089
Integration Time (usec): 2000 (USB2+H06089)
Spectra Averaged: 20 (USB2+H06089)
Boxcar Smoothing: 2 (USB2+H06089)
Correct for Electrical Dark: No (USB2+H06089)
Strobe/Lamp Enabled: No (USB2+H06089)
Correct for Detector Non-linearity: No (USB2+H06089)
Correct for Stray Light: No (USB2+H06089)
Number of Pixels in Processed Spectrum: 2048
>>>>>Begin Processed Spectral Data<<<<<
339.70	1016.73
340.07	1016.73
340.45	986.75
340.82	968.14
341.19	942.60
341.57	919.13
341.94	908.32
342.31	902.09
342.69	895.70
343.06	896.82
343.43	895.25
343.81	895.42
344.18	896.40
344.55	900.01
344.93	905.34
345.30	911.26
345.67	919.13
346.04	928.51
346.42	935.86
346.79	944.76
347.16	955.38
347.54	961.45
347.91	966.29
348.28	974.93
348.65	983.82
349.03	994.61
349.40	1004.70
349.77	1015.28
350.14	1025.44
350.52	1032.29
350.89	1035.24
351.26	1040.32
351.63	1044.02
352.01	1047.30
352.38	1049.73
352.75	1052.28
353.12	1053.69
353.50	1056.28
353.87	1058.34
354.24	1059.79
354.61	1063.28
354.98	1065.39
355.36	1069.23
355.73	1070.84
356.10	1074.21
356.47	1076.41
356.84	1079.50
357.22	1078.89
357.59	1078.57
357.96	1074.75
358.33	1074.91
358.70	1072.60
359.08	1073.21
359.45	1074.63
359.82	1074.94
360.19	1072.41
360.56	1070.54
360.94	1068.08
361.31	1067.07
361.68	1070.56
362.05	1068.31
362.42	1066.30
362.79	1068.57
363.16	1067.42
363.54	1064.45
363.91	1065.65
364.28	1067.38
364.65	1066.37
365.02	1068.10
365.39	1069.09
365.76	1068.92
366.14	1070.14
366.51	1067.85
366.88	1063.54
367.25	1062.28
367.62	1060.92
367.99	1061.92
368.36	1060.85
368.73	1061.83
369.10	1058.83
369.48	1058.74
369.85	1057.73
370.22	1061.64
370.59	1063.16
370.96	1064.90
371.33	1063.77
371.70	1060.64
372.07	1057.59
372.44	1056.24
372.81	1057.10
373.18	1058.39
373.55	1063.09
373.93	1065.58
374.30	1067.12
374.67	1068.17
375.04	1072.06
375.41	1071.97
375.78	1070.21
376.15	1069.88
376.52	1071.92
376.89	1066.61
377.26	1064.57
377.63	1066.32
378.00	1064.43
378.37	1063.73
378.74	1066.28
379.11	1066.44
379.48	1066.09
379.85	1066.77
380.22	1065.41
380.59	1066.75
380.96	1067.71
381.33	1068.20
381.70	1070.40
382.07	1070.63
382.44	1070.65
382.81	1070.87
383.18	1067.89
383.55	1068.78
383.92	1070.33
384.29	1069.77
384.66	1069.25
385.03	1070.16
385.40	1069.11
385.77	1066.65
386.14	1065.93
386.51	1067.96
386.88	1070.40
387.25	1068.67
387.62	1068.29
387.99	1068.71
388.36	1064.59
388.73	1061.99
389.10	1062.67
389.46	1064.97
389.83	1064.38
390.20	1067.07
390.57	1068.41
390.94	1069.09
391.31	1067.45
391.68	1067.87
392.05	1069.46
392.42	1069.91
392.79	1068.74
393.16	1068.24
393.53	1067.92
393.89	1068.13
394.26	1068.34
394.63	1068.03
395.00	1068.36
395.37	1068.36
395.74	1065.46
396.11	1067.00
396.48	1067.14
396.84	1069.55
397.21	1069.48
397.58	1072.48
397.95	1070.58
398.32	1072.32
398.69	1072.74
399.06	1073.98
399.42	1073.77
399.79	1075.94
400.16	1076.53
400.53	1075.01
400.90	1079.43
401.27	1081.68
401.64	1081.44
402.00	1078.52
402.37	1077.54
402.74	1073.00
403.11	1069.88
403.48	1068.27
403.84	1069.67
404.21	1068.78
404.58	1068.57
404.95	1068.06
405.32	1067.35
405.68	1068.50
406.05	1070.28
406.42	1068.48
406.79	1068.67
407.16	1068.45
407.52	1068.88
407.89	1068.71
408.26	1071.47
408.63	1075.43
408.99	1075.87
409.36	1074.59
409.73	1074.03
410.10	1074.68
410.47	1068.34
410.83	1068.29
411.20	1068.71
411.57	1068.13
411.94	1064.12
412.30	1067.10
412.67	1067.42
413.04	1067.87
413.40	1069.72
413.77	1072.71
414.14	1074.28
414.51	1076.83
414.87	1075.87
415.24	1074.98
415.61	1076.27
415.97	1073.63
416.34	1072.01
416.71	1071.15
417.08	1071.24
417.44	1071.03
417.81	1072.76
418.18	1074.96
418.54	1075.73
418.91	1076.58
419.28	1075.38
419.64	1072.22
420.01	1070.94
420.38	1072.53
420.74	1073.09
421.11	1073.04
421.48	1073.72
421.84	1074.96
422.21	1074.73
422.58	1070.82
422.94	1072.76
423.31	1074.96
423.68	1072.57
424.04	1068.03
424.41	1073.58
424.77	1071.12
425.14	1070.87
425.51	1072.25
425.87	1077.30
426.24	1077.84
426.61	1081.33
426.97	1083.11
427.34	1082.73
427.70	1083.29
428.07	1084.02
428.44	1084.70
428.80	1086.80
429.17	1088.40
429.53	1090.29
429.90	1090.74
430.27	1090.46
430.63	1089.66
431.00	1092.33
431.36	1091.30
431.73	1088.09
432.09	1088.49
432.46	1090.13
432.83	1090.06
433.19	1090.99
433.56	1096.14
433.92	1098.44
434.29	1098.95
434.65	1097.34
435.02	1100.22
435.38	1101.74
435.75	1105.51
436.11	1105.83
436.48	1112.81
436.84	1115.34
437.21	1117.91
437.57	1119.41
437.94	1125.40
438.30	1126.85
438.67	1129.57
439.03	1131.63
439.40	1137.48
439.76	1140.80
440.13	1147.61
440.49	1154.52
440.86	1160.55
441.22	1163.97
441.59	1169.36
441.95	1172.89
442.32	1178.39
442.68	1185.46
443.05	1194.47
443.41	1205.63
443.78	1211.81
444.14	1219.37
444.51	1227.85
444.87	1234.56
445.24	1238.59
445.60	1251.79
445.96	1262.34
446.33	1275.71
446.69	1286.76
447.06	1299.49
447.42	1310.19
447.79	1323.25
448.15	1337.71
448.51	1355.38
448.88	1373.68
449.24	1393.51
449.61	1415.25
449.97	1434.58
450.33	1456.05
450.70	1476.95
451.06	1499.65
451.43	1520.67
451.79	1541.06
452.15	1566.08
452.52	1595.17
452.88	1625.95
453.24	1658.04
453.61	1698.90
453.97	1734.81
454.34	1770.01
454.70	1808.70
455.06	1846.10
455.43	1887.45
455.79	1925.37
456.15	1969.91
456.52	2008.44
456.88	2061.45
457.24	2109.50
457.61	2163.01
457.97	2216.09
458.33	2270.97
458.70	2318.00
459.06	2363.22
459.42	2414.80
459.79	2461.78
460.15	2520.64
460.51	2575.90
460.88	2636.38
461.24	2692.18
461.60	2760.73
461.96	2820.46
462.33	2877.41
462.69	2927.45
463.05	2984.70
463.42	3037.24
463.78	3081.55
464.14	3124.50
464.50	3173.98
464.87	3207.59
465.23	3222.66
465.59	3245.78
465.95	3263.50
466.32	3270.78
466.68	3286.35
467.04	3301.91
467.40	3304.18
467.77	3313.94
468.13	3319.44
468.49	3314.39
468.85	3313.10
469.22	3317.24
469.58	3304.88
469.94	3293.58
470.30	3281.55
470.66	3254.00
471.03	3219.66
471.39	3194.15
471.75	3152.70
472.11	3112.66
472.47	3084.92
472.84	3053.14
473.20	3020.55
473.56	2999.65
473.92	2960.22
474.28	2929.09
474.65	2902.52
475.01	2874.44
475.37	2839.54
475.73	2815.31
476.09	2781.61
476.45	2749.33
476.81	2716.87
477.18	2688.15
477.54	2662.73
477.90	2638.81
478.26	2613.25
478.62	2589.83
478.98	2570.82
479.34	2553.38
479.71	2536.67
480.07	2515.00
480.43	2494.22
480.79	2473.08
481.15	2450.68
481.51	2424.51
481.87	2410.47
482.23	2386.32
482.59	2361.67
482.96	2336.81
483.32	2315.94
483.68	2283.38
484.04	2263.11
484.40	2247.08
484.76	2230.69
485.12	2214.50
485.48	2202.61
485.84	2181.52
486.20	2159.94
486.56	2141.10
486.92	2118.54
487.28	2094.55
487.64	2073.34
488.00	2057.31
488.37	2031.96
488.73	2006.33
489.09	1981.57
489.45	1961.98
489.81	1931.22
490.17	1907.16
490.53	1886.92
490.89	1864.21
491.25	1844.04
491.61	1823.30
491.97	1807.31
492.33	1786.53
492.69	1769.47
493.05	1747.54
493.41	1723.57
493.77	1700.49
494.13	1679.94
494.49	1660.84
494.85	1645.49
495.21	1635.40
495.57	1622.23
495.93	1611.88
496.29	1592.20
496.64	1576.51
497.00	1558.02
497.36	1544.26
497.72	1525.73
498.08	1515.82
498.44	1503.84
498.80	1494.22
499.16	1479.99
499.52	1471.92
499.88	1465.36
500.24	1457.03
500.60	1445.91
500.96	1436.69
501.32	1422.76
501.68	1411.48
502.03	1398.75
502.39	1388.92
502.75	1381.43
503.11	1377.34
503.47	1369.87
503.83	1359.27
504.19	1352.17
504.55	1341.01
504.91	1330.22
505.26	1319.80
505.62	1315.78
505.98	1308.22
506.34	1303.09
506.70	1297.62
507.06	1291.16
507.42	1281.14
507.78	1276.36
508.13	1270.26
508.49	1264.69
508.85	1259.86
509.21	1256.35
509.57	1247.08
509.93	1243.88
510.28	1236.32
510.64	1228.50
511.00	1221.31
511.36	1216.26
511.72	1207.60
512.07	1205.12
512.43	1201.02
512.79	1198.66
513.15	1197.84
513.51	1196.36
513.86	1191.29
514.22	1186.84
514.58	1179.86
514.94	1175.02
515.30	1171.72
515.65	1166.13
516.01	1163.64
516.37	1163.13
516.73	1161.28
517.08	1157.25
517.44	1159.36
517.80	1155.66
518.16	1154.09
518.51	1150.40
518.87	1148.88
519.23	1146.16
519.59	1144.03
519.94	1141.64
520.30	1139.09
520.66	1136.38
521.01	1132.63
521.37	1135.58
521.73	1136.12
522.09	1134.79
522.44	1135.39
522.80	1134.57
523.16	1130.92
523.51	1123.71
523.87	1121.65
524.23	1117.70
524.58	1116.46
524.94	1115.73
525.30	1119.29
525.65	1118.57
526.01	1115.59
526.37	1113.09
526.72	1109.98
527.08	1105.41
527.44	1106.98
527.79	1107.03
528.15	1106.21
528.51	1105.53
528.86	1106.72
529.22	1102.09
529.58	1101.01
529.93	1101.99
530.29	1101.97
530.65	1099.96
531.00	1099.86
531.36	1101.67
531.71	1101.34
532.07	1102.63
532.43	1103.73
532.78	1103.09
533.14	1099.44
533.49	1097.78
533.85	1097.08
534.21	1096.99
534.56	1099.00
534.92	1099.93
535.27	1099.21
535.63	1096.78
535.98	1094.43
536.34	1091.11
536.69	1090.15
537.05	1089.36
537.41	1090.81
537.76	1090.20
538.12	1090.97
538.47	1092.61
538.83	1091.49
539.18	1085.45
539.54	1082.90
539.89	1080.48
540.25	1078.75
540.60	1079.81
540.96	1080.98
541.31	1082.83
541.67	1085.82
542.02	1083.95
542.38	1083.71
542.73	1085.91
543.09	1088.28
543.44	1085.66
543.80	1087.53
544.15	1085.31
544.51	1084.96
544.86	1080.70
545.22	1082.76
545.57	1082.08
545.93	1082.59
546.28	1083.34
546.64	1084.07
546.99	1081.12
547.35	1079.55
547.70	1078.40
548.05	1078.64
548.41	1080.06
548.76	1084.37
549.12	1082.61
549.47	1083.53
549.83	1082.92
550.18	1083.22
550.53	1080.72
550.89	1081.19
551.24	1078.64
551.60	1075.50
551.95	1072.36
552.30	1072.15
552.66	1072.32
553.01	1075.03
553.37	1076.86
553.72	1079.29
554.07	1078.36
554.43	1079.22
554.78	1077.23
555.13	1075.57
555.49	1074.40
555.84	1075.50
556.19	1073.67
556.55	1074.03
556.90	1074.59
557.26	1073.98
557.61	1075.13
557.96	1078.54
558.32	1078.92
558.67	1078.26
559.02	1078.14
559.37	1076.08
559.73	1073.91
560.08	1075.99
560.43	1079.20
560.79	1081.26
561.14	1078.61
561.49	1078.24
561.85	1075.90
562.20	1072.57
562.55	1070.56
562.90	1073.37
563.26	1074.49
563.61	1075.22
563.96	1078.38
564.32	1078.96
564.67	1076.13
565.02	1074.87
565.37	1077.14
565.73	1077.16
566.08	1077.07
566.43	1079.99
566.78	1081.05
567.14	1081.61
567.49	1081.80
567.84	1082.19
568.19	1080.60
568.54	1078.68
568.90	1072.71
569.25	1070.94
569.60	1070.51
569.95	1072.62
570.31	1071.75
570.66	1074.31
571.01	1072.57
571.36	1072.13
571.71	1068.97
572.06	1072.97
572.42	1074.49
572.77	1075.22
573.12	1073.88
573.47	1078.07
573.82	1073.28
574.18	1070.94
574.53	1072.13
574.88	1077.07
575.23	1075.90
575.58	1078.45
575.93	1082.59
576.28	1080.58
576.64	1080.79
576.99	1079.48
577.34	1080.63
577.69	1077.47
578.04	1080.27
578.39	1078.38
578.74	1078.28
579.09	1078.31
579.44	1076.81
579.80	1075.85
580.15	1072.55
580.50	1072.25
580.85	1072.90
581.20	1075.05
581.55	1075.20
581.90	1077.98
582.25	1080.65
582.60	1079.24
582.95	1078.94
583.30	1079.78
583.65	1078.19
584.00	1075.64
584.35	1074.91
584.71	1075.45
585.06	1073.51
585.41	1074.05
585.76	1074.42
586.11	1076.74
586.46	1074.54
586.81	1075.83
587.16	1078.17
587.51	1080.44
587.86	1080.25
588.21	1082.26
588.56	1080.56
588.91	1081.30
589.26	1076.39
589.61	1074.45
589.96	1074.17
590.31	1077.09
590.66	1074.24
591.01	1076.74
591.36	1076.55
591.71	1078.33
592.06	1077.09
592.41	1075.34
592.76	1074.87
593.10	1072.08
593.45	1070.56
593.80	1068.76
594.15	1069.79
594.50	1072.55
594.85	1075.90
595.20	1073.84
595.55	1074.66
595.90	1074.63
596.25	1073.70
596.60	1073.00
596.95	1073.18
597.30	1073.32
597.64	1085.07
597.99	1082.85
598.34	1085.26
598.69	1084.60
599.04	1083.62
599.39	1071.24
599.74	1072.34
600.09	1073.18
600.44	1077.47
600.78	1077.21
601.13	1077.14
601.48	1075.69
601.83	1074.59
602.18	1073.04
602.53	1076.58
602.88	1079.20
603.22	1081.66
603.57	1081.44
603.92	1081.02
604.27	1077.00
604.62	1073.51
604.97	1071.17
605.31	1070.00
605.66	1069.53
606.01	1072.81
606.36	1077.09
606.71	1077.86
607.05	1076.90
607.40	1077.30
607.75	1075.80
608.10	1073.51
608.44	1076.18
608.79	1077.51
609.14	1079.43
609.49	1081.30
609.84	1083.97
610.18	1083.97
610.53	1084.53
610.88	1081.35
611.23	1078.82
611.57	1075.76
611.92	1073.70
612.27	1073.49
612.62	1072.76
612.96	1072.36
613.31	1072.29
613.66	1075.05
614.00	1073.88
614.35	1077.61
614.70	1079.55
615.05	1082.19
615.39	1081.84
615.74	1083.34
616.09	1081.44
616.43	1078.57
616.78	1077.00
617.13	1074.28
617.47	1076.51
617.82	1075.83
618.17	1077.35
618.51	1074.63
618.86	1072.83
619.21	1068.15
619.55	1066.00
619.90	1066.30
620.25	1067.85
620.59	1071.78
620.94	1074.52
621.29	1078.96
621.63	1080.46
621.98	1080.32
622.32	1080.58
622.67	1077.84
623.02	1076.95
623.36	1075.10
623.71	1074.61
624.05	1075.34
624.40	1077.98
624.75	1074.94
625.09	1076.81
625.44	1079.01
625.78	1074.73
626.13	1073.70
626.48	1076.11
626.82	1073.77
627.17	1071.64
627.51	1076.46
627.86	1076.18
628.20	1074.84
628.55	1076.72
628.89	1078.03
629.24	1076.34
629.58	1078.87
629.93	1079.53
630.28	1078.14
630.62	1080.02
630.97	1078.61
631.31	1074.73
631.66	1075.22
632.00	1075.87
632.35	1073.30
632.69	1073.46
633.04	1072.64
633.38	1072.78
633.73	1074.49
634.07	1076.15
634.42	1076.60
634.76	1080.27
635.11	1080.27
635.45	1077.30
635.79	1075.66
636.14	1073.07
636.48	1069.48
636.83	1066.07
637.17	1065.11
637.52	1066.77
637.86	1067.87
638.21	1069.93
638.55	1075.62
638.89	1077.86
639.24	1075.99
639.58	1076.76
639.93	1073.65
640.27	1071.31
640.61	1071.82
640.96	1073.95
641.30	1075.27
641.65	1080.93
641.99	1079.38
642.33	1078.31
642.68	1078.73
643.02	1077.33
643.37	1071.97
643.71	1073.28
644.05	1074.80
644.40	1073.63
644.74	1074.31
645.08	1079.20
645.43	1078.50
645.77	1077.11
646.11	1077.89
646.46	1075.94
646.80	1072.92
647.14	1071.26
647.49	1069.91
647.83	1068.34
648.17	1068.97
648.52	1069.65
648.86	1072.88
649.20	1075.52
649.55	1074.70
649.89	1072.29
650.23	1073.18
650.57	1074.17
650.92	1074.38
651.26	1074.35
651.60	1076.74
651.95	1076.23
652.29	1074.70
652.63	1072.29
652.97	1068.92
653.32	1068.24
653.66	1068.59
654.00	1069.79
654.34	1067.75
654.69	1072.55
655.03	1071.90
655.37	1070.44
655.71	1068.43
656.05	1071.12
656.40	1072.95
656.74	1071.80
657.08	1071.59
657.42	1070.65
657.76	1071.66
658.11	1071.57
658.45	1073.72
658.79	1076.34
659.13	1076.69
659.47	1074.91
659.82	1071.31
660.16	1070.16
660.50	1068.34
660.84	1067.92
661.18	1067.75
661.52	1068.48
661.87	1072.22
662.21	1074.28
662.55	1076.51
662.89	1080.44
663.23	1080.32
663.57	1079.24
663.91	1078.61
664.25	1075.01
664.60	1074.24
664.94	1074.14
665.28	1072.22
665.62	1070.94
665.96	1073.49
666.30	1072.50
666.64	1069.58
666.98	1070.02
667.32	1072.46
667.66	1072.57
668.01	1071.12
668.35	1075.22
668.69	1074.75
669.03	1074.70
669.37	1074.31
669.71	1076.53
670.05	1077.63
670.39	1078.19
670.73	1075.78
671.07	1075.08
671.41	1074.87
671.75	1073.56
672.09	1071.61
672.43	1074.12
672.77	1078.10
673.11	1077.07
673.45	1076.81
673.79	1080.79
674.13	1079.92
674.47	1077.54
674.81	1077.84
675.15	1077.35
675.49	1076.72
675.83	1076.88
676.17	1079.71
676.51	1082.22
676.85	1083.15
677.19	1079.29
677.53	1076.58
677.87	1071.33
678.21	1067.26
678.55	1065.60
678.89	1069.58
679.23	1074.68
679.57	1075.83
679.90	1075.36
680.24	1076.04
680.58	1074.07
680.92	1071.01
681.26	1074.35
681.60	1077.61
681.94	1079.38
682.28	1081.05
682.62	1080.02
682.96	1080.86
683.29	1078.38
683.63	1081.26
683.97	1077.65
684.31	1076.65
684.65	1069.30
684.99	1069.74
685.33	1064.10
685.67	1064.76
686.00	1067.17
686.34	1071.12
686.68	1070.77
687.02	1072.36
687.36	1073.91
687.70	1071.99
688.03	1073.93
688.37	1074.63
688.71	1075.78
689.05	1075.41
689.39	1077.91
689.72	1076.20
690.06	1072.60
690.40	1069.06
690.74	1071.36
691.08	1069.51
691.41	1066.51
691.75	1065.34
692.09	1068.57
692.43	1065.41
692.76	1063.94
693.10	1069.18
693.44	1072.39
693.78	1071.64
694.11	1075.05
694.45	1074.07
694.79	1073.18
695.13	1073.11
695.46	1071.33
695.80	1072.41
696.14	1073.51
696.48	1072.11
696.81	1073.93
697.15	1075.92
697.49	1073.98
697.82	1074.45
698.16	1074.49
698.50	1070.89
698.83	1069.77
699.17	1070.58
699.51	1073.07
699.84	1075.22
700.18	1075.34
700.52	1072.88
700.85	1067.57
701.19	1064.85
701.53	1063.07
701.86	1065.11
702.20	1069.62
702.54	1071.97
702.87	1071.38
703.21	1068.74
703.55	1069.93
703.88	1065.44
704.22	1069.74
704.55	1070.75
704.89	1070.68
705.23	1068.45
705.56	1073.18
705.90	1069.37
706.23	1068.31
706.57	1074.21
706.91	1075.15
707.24	1072.60
707.58	1073.79
707.91	1074.98
708.25	1069.25
708.58	1069.11
708.92	1073.14
709.26	1071.73
709.59	1074.82
709.93	1077.84
710.26	1078.47
710.60	1076.51
710.93	1075.29
711.27	1071.78
711.60	1072.50
711.94	1073.88
712.27	1071.38
712.61	1072.88
712.94	1076.60
713.28	1073.23
713.61	1072.55
713.95	1074.05
714.28	1077.04
714.62	1076.08
714.95	1077.25
715.29	1080.27
715.62	1079.67
715.96	1078.75
716.29	1077.37
716.63	1077.58
716.96	1075.10
717.29	1072.74
717.63	1067.61
717.96	1066.93
718.30	1066.68
718.63	1063.66
718.97	1068.67
719.30	1072.97
719.63	1071.12
719.97	1071.29
720.30	1075.27
720.64	1074.91
720.97	1073.07
721.30	1076.08
721.64	1074.84
721.97	1074.89
722.31	1074.03
722.64	1074.03
722.97	1072.64
723.31	1072.57
723.64	1070.37
723.97	1067.75
724.31	1064.57
724.64	1065.60
724.98	1066.96
725.31	1068.95
725.64	1071.61
725.98	1074.84
726.31	1074.98
726.64	1074.96
726.97	1075.80
727.31	1075.73
727.64	1076.81
727.97	1076.53
728.31	1077.70
728.64	1075.08
728.97	1073.53
729.31	1073.00
729.64	1071.31
729.97	1069.25
730.30	1068.62
730.64	1068.13
730.97	1068.99
731.30	1070.49
731.63	1071.52
731.97	1072.67
732.30	1075.76
732.63	1077.75
732.96	1077.93
733.30	1078.31
733.63	1080.02
733.96	1080.23
734.29	1077.47
734.63	1075.17
734.96	1073.58
735.29	1069.67
735.62	1066.96
735.95	1068.71
736.29	1067.96
736.62	1069.23
736.95	1073.70
737.28	1075.48
737.61	1073.95
737.94	1075.27
738.28	1076.39
738.61	1074.31
738.94	1074.91
739.27	1074.14
739.60	1075.01
739.93	1074.45
740.27	1075.94
740.60	1074.10
740.93	1073.28
741.26	1075.83
741.59	1075.41
741.92	1074.63
742.25	1076.93
742.58	1075.85
742.91	1073.49
743.25	1071.29
743.58	1068.69
743.91	1067.38
744.24	1070.91
744.57	1074.59
744.90	1081.61
745.23	1080.48
745.56	1080.06
745.89	1081.73
746.22	1076.08
746.55	1069.86
746.88	1074.17
747.21	1076.04
747.54	1075.13
747.87	1078.28
748.20	1079.41
748.53	1080.02
748.87	1079.01
749.20	1077.37
749.53	1076.44
749.86	1078.00
750.19	1077.04
750.52	1075.59
750.85	1073.37
751.18	1076.39
751.51	1075.69
751.84	1077.09
752.16	1078.66
752.49	1082.50
752.82	1079.10
753.15	1078.94
753.48	1075.99
753.81	1074.10
754.14	1072.22
754.47	1071.68
754.80	1070.89
755.13	1070.07
755.46	1070.42
755.79	1070.26
756.12	1072.97
756.45	1071.64
756.78	1074.12
757.11	1073.21
757.43	1073.30
757.76	1071.19
758.09	1071.87
758.42	1069.23
758.75	1072.36
759.08	1075.55
759.41	1077.93
759.74	1076.69
760.07	1076.60
760.39	1070.75
760.72	1069.11
761.05	1067.87
761.38	1069.95
761.71	1073.16
762.04	1076.25
762.36	1073.35
762.69	1071.31
763.02	1070.87
763.35	1069.91
763.68	1070.82
764.01	1072.11
764.33	1073.07
764.66	1072.11
764.99	1070.23
765.32	1071.47
765.65	1071.57
765.97	1073.91
766.30	1074.00
766.63	1073.93
766.96	1073.04
767.28	1073.42
767.61	1070.91
767.94	1074.77
768.27	1074.94
768.59	1075.76
768.92	1074.70
769.25	1079.06
769.58	1075.69
769.90	1078.17
770.23	1076.97
770.56	1075.90
770.89	1071.43
771.21	1074.05
771.54	1073.60
771.87	1070.35
772.19	1074.73
772.52	1076.55
772.85	1076.06
773.17	1077.02
773.50	1077.70
773.83	1076.58
774.15	1073.56
774.48	1072.20
774.81	1069.72
775.13	1072.81
775.46	1069.16
775.79	1070.80
776.11	1069.46
776.44	1070.33
776.77	1069.41
777.09	1071.33
777.42	1073.84
777.74	1075.27
778.07	1077.16
778.40	1077.42
778.72	1077.68
779.05	1075.38
779.37	1078.03
779.70	1074.19
780.03	1074.98
780.35	1073.93
780.68	1074.10
781.00	1071.52
781.33	1075.22
781.65	1075.17
781.98	1076.13
782.31	1074.47
782.63	1074.45
782.96	1073.98
783.28	1073.37
783.61	1073.42
783.93	1073.49
784.26	1073.67
784.58	1072.01
784.91	1074.49
785.23	1073.04
785.56	1075.03
785.88	1077.58
786.21	1077.72
786.53	1074.61
786.86	1074.87
787.18	1075.66
787.51	1070.42
787.83	1071.45
788.16	1073.18
788.48	1074.94
788.81	1074.87
789.13	1076.37
789.46	1073.74
789.78	1072.08
790.10	1072.85
790.43	1068.50
790.75	1068.52
791.08	1070.98
791.40	1071.61
791.73	1070.75
792.05	1075.20
792.37	1080.13
792.70	1077.56
793.02	1077.33
793.35	1077.37
793.67	1074.54
793.99	1070.72
794.32	1072.81
794.64	1072.74
794.96	1070.84
795.29	1071.78
795.61	1069.67
795.93	1066.96
796.26	1065.83
796.58	1067.35
796.91	1068.06
797.23	1067.24
797.55	1069.48
797.87	1071.22
798.20	1070.61
798.52	1070.54
798.84	1072.29
799.17	1070.98
799.49	1073.39
799.81	1073.98
800.14	1075.80
800.46	1072.22
800.78	1073.46
801.10	1069.77
801.43	1069.74
801.75	1066.18
802.07	1070.84
802.40	1069.74
802.72	1073.35
803.04	1074.14
803.36	1074.94
803.69	1077.16
804.01	1078.40
804.33	1074.47
804.65	1074.03
804.97	1074.49
805.30	1071.36
805.62	1072.62
805.94	1073.18
806.26	1075.87
806.58	1076.13
806.91	1076.46
807.23	1073.98
807.55	1074.73
807.87	1073.30
808.19	1073.30
808.52	1071.64
808.84	1073.84
809.16	1072.95
809.48	1070.94
809.80	1073.49
810.12	1077.28
810.44	1074.82
810.77	1075.27
811.09	1076.51
811.41	1075.01
811.73	1074.00
812.05	1075.38
812.37	1075.27
812.69	1075.64
813.01	1076.76
813.33	1074.24
813.66	1072.22
813.98	1072.95
814.30	1072.27
814.62	1068.20
814.94	1069.72
815.26	1069.27
815.58	1068.13
815.90	1069.70
816.22	1072.43
816.54	1072.29
816.86	1077.02
817.18	1078.73
817.50	1075.78
817.82	1075.31
818.14	1075.97
818.46	1073.44
818.78	1069.67
819.10	1072.18
819.42	1072.41
819.74	1073.63
820.06	1074.24
820.38	1076.23
820.70	1074.17
821.02	1072.48
821.34	1073.23
821.66	1071.31
821.98	1071.12
822.30	1071.64
822.62	1072.20
822.94	1071.40
823.26	1075.08
823.58	1074.68
823.90	1076.53
824.22	1076.58
824.54	1074.33
824.86	1073.98
825.18	1074.61
825.50	1071.92
825.81	1074.03
826.13	1076.95
826.45	1076.37
826.77	1078.89
827.09	1077.75
827.41	1077.25
827.73	1078.43
828.05	1075.38
828.36	1072.18
828.68	1071.19
829.00	1067.92
829.32	1065.74
829.64	1069.09
829.96	1069.25
830.28	1074.68
830.59	1076.65
830.91	1077.23
831.23	1075.36
831.55	1075.97
831.87	1074.98
832.19	1074.98
832.50	1075.38
832.82	1077.93
833.14	1074.49
833.46	1075.34
833.78	1076.76
834.09	1077.49
834.41	1072.50
834.73	1077.23
835.05	1075.22
835.36	1073.32
835.68	1072.50
836.00	1074.89
836.32	1072.74
836.63	1073.86
836.95	1073.04
837.27	1071.29
837.59	1069.91
837.90	1072.41
838.22	1073.23
838.54	1075.87
838.85	1076.90
839.17	1079.60
839.49	1075.38
839.80	1074.17
840.12	1074.05
840.44	1073.39
840.76	1071.94
841.07	1074.21
841.39	1073.53
841.71	1073.04
842.02	1071.15
842.34	1072.74
842.65	1076.11
842.97	1079.60
843.29	1077.77
843.60	1079.17
843.92	1076.83
844.24	1075.10
844.55	1071.97
844.87	1072.15
845.18	1073.65
845.50	1075.92
845.82	1074.84
846.13	1074.40
846.45	1076.95
846.76	1075.22
847.08	1076.34
847.40	1076.69
847.71	1075.83
848.03	1072.83
848.34	1073.74
848.66	1070.35
848.97	1069.51
849.29	1067.87
849.60	1069.79
849.92	1070.37
850.24	1074.10
850.55	1076.76
850.87	1078.26
851.18	1078.38
851.50	1079.10
851.81	1074.00
852.13	1071.17
852.44	1071.61
852.76	1069.51
853.07	1068.01
853.39	1070.12
853.70	1072.08
854.01	1073.53
854.33	1073.58
854.64	1075.57
854.96	1077.16
855.27	1076.44
855.59	1075.45
855.90	1078.21
856.22	1074.59
856.53	1074.80
856.84	1072.04
857.16	1074.89
857.47	1070.28
857.79	1069.55
858.10	1068.59
858.41	1072.48
858.73	1069.46
859.04	1072.32
859.36	1076.13
859.67	1075.45
859.98	1072.74
860.30	1071.10
860.61	1073.37
860.92	1072.04
861.24	1072.92
861.55	1074.17
861.87	1075.99
862.18	1073.37
862.49	1076.97
862.81	1075.01
863.12	1074.70
863.43	1078.66
863.74	1080.09
864.06	1074.35
864.37	1076.81
864.68	1075.97
865.00	1070.70
865.31	1069.81
865.62	1070.84
865.94	1070.12
866.25	1073.91
866.56	1078.45
866.87	1082.36
867.19	1084.39
867.50	1084.14
867.81	1079.67
868.12	1076.76
868.44	1072.95
868.75	1072.95
869.06	1073.32
869.37	1075.64
869.68	1075.85
870.00	1077.77
870.31	1075.31
870.62	1074.33
870.93	1075.71
871.24	1077.07
871.56	1075.62
871.87	1073.49
872.18	1074.61
872.49	1073.04
872.80	1073.67
873.12	1073.02
873.43	1075.43
873.74	1075.01
874.05	1073.21
874.36	1068.38
874.67	1068.24
874.98	1068.99
875.29	1067.85
875.61	1070.21
875.92	1071.85
876.23	1070.96
876.54	1070.58
876.85	1070.91
877.16	1069.65
877.47	1071.82
877.78	1076.67
878.09	1075.94
878.40	1075.62
878.72	1076.60
879.03	1073.25
879.34	1070.09
879.65	1071.01
879.96	1070.63
880.27	1071.17
880.58	1075.31
880.89	1074.03
881.20	1073.91
881.51	1074.98
881.82	1076.11
882.13	1076.37
882.44	1078.64
882.75	1080.23
883.06	1080.25
883.37	1075.52
883.68	1073.84
883.99	1074.96
884.30	1072.50
884.61	1071.38
884.92	1075.69
885.23	1077.16
885.54	1076.06
885.85	1077.49
886.16	1075.90
886.47	1074.24
886.78	1071.33
887.08	1070.65
887.39	1070.84
887.70	1074.00
888.01	1073.70
888.32	1076.32
888.63	1076.18
888.94	1074.75
889.25	1073.74
889.56	1074.52
889.87	1070.96
890.17	1070.35
890.48	1072.34
890.79	1072.39
891.10	1069.11
891.41	1071.71
891.72	1070.07
892.03	1069.55
892.34	1069.02
892.64	1069.81
892.95	1067.57
893.26	1069.04
893.57	1069.02
893.88	1067.52
894.18	1068.88
894.49	1069.06
894.80	1070.42
895.11	1069.46
895.42	1070.70
895.72	1070.72
896.03	1072.29
896.34	1070.58
896.65	1071.66
896.96	1073.42
897.26	1076.01
897.57	1075.50
897.88	1077.16
898.19	1075.13
898.49	1073.60
898.80	1069.88
899.11	1070.98
899.41	1069.91
899.72	1071.08
900.03	1069.79
900.34	1069.55
900.64	1068.97
900.95	1068.74
901.26	1069.95
901.56	1072.90
901.87	1077.09
902.18	1075.87
902.48	1077.49
902.79	1075.52
903.10	1077.21
903.40	1074.17
903.71	1075.05
904.02	1073.53
904.32	1076.58
904.63	1075.08
904.94	1073.21
905.24	1073.49
905.55	1074.77
905.85	1073.30
906.16	1074.80
906.47	1079.24
906.77	1080.41
907.08	1078.59
907.38	1077.14
907.69	1073.07
908.00	1072.64
908.30	1073.35
908.61	1075.24
908.91	1074.84
909.22	1075.31
909.52	1074.52
909.83	1071.92
910.14	1071.31
910.44	1075.52
910.75	1077.77
911.05	1076.32
911.36	1077.23
911.66	1078.75
911.97	1075.87
912.27	1078.82
912.58	1081.05
912.88	1083.88
913.19	1084.56
913.49	1082.87
913.80	1079.10
914.10	1077.16
914.41	1075.45
914.71	1072.39
915.01	1073.88
915.32	1073.32
915.62	1074.42
915.93	1073.77
916.23	1074.40
916.54	1073.95
916.84	1076.20
917.15	1076.25
917.45	1076.46
917.75	1077.04
918.06	1077.25
918.36	1073.37
918.67	1071.80
918.97	1070.28
919.27	1070.58
919.58	1069.95
919.88	1074.14
920.18	1071.29
920.49	1072.18
920.79	1071.57
921.10	1072.13
921.40	1069.09
921.70	1073.14
922.01	1071.24
922.31	1068.50
922.61	1069.88
922.92	1069.30
923.22	1067.38
923.52	1071.38
923.82	1071.87
924.13	1070.16
924.43	1072.57
924.73	1069.23
925.04	1067.24
925.34	1067.68
925.64	1067.92
925.94	1067.21
926.25	1071.36
926.55	1069.41
926.85	1072.62
927.15	1072.43
927.46	1071.57
927.76	1072.90
928.06	1075.94
928.36	1073.86
928.67	1076.58
928.97	1077.47
929.27	1074.56
929.57	1075.08
929.87	1076.18
930.18	1076.90
930.48	1077.96
930.78	1080.46
931.08	1077.35
931.38	1077.28
931.69	1073.53
931.99	1072.15
932.29	1074.40
932.59	1073.25
932.89	1072.08
933.19	1070.77
933.49	1069.55
933.80	1068.24
934.10	1070.37
934.40	1071.08
934.70	1074.80
935.00	1076.83
935.30	1076.15
935.60	1074.89
935.90	1072.97
936.20	1069.67
936.50	1069.79
936.81	1071.54
937.11	1069.84
937.41	1072.08
937.71	1075.20
938.01	1074.96
938.31	1070.63
938.61	1074.07
938.91	1073.98
939.21	1071.82
939.51	1071.97
939.81	1073.46
940.11	1072.48
940.41	1072.43
940.71	1073.11
941.01	1073.18
941.31	1071.38
941.61	1071.17
941.91	1068.48
942.21	1070.23
942.51	1070.96
942.81	1073.11
943.11	1072.43
943.41	1074.59
943.71	1073.44
944.01	1071.40
944.31	1073.86
944.61	1073.25
944.90	1072.08
945.20	1074.73
945.50	1074.68
945.80	1070.14
946.10	1072.13
946.40	1071.03
946.70	1067.42
947.00	1066.51
947.30	1066.16
947.60	1066.18
947.89	1067.17
948.19	1069.62
948.49	1070.70
948.79	1072.20
949.09	1071.57
949.39	1073.46
949.69	1070.21
949.98	1070.07
950.28	1070.58
950.58	1073.14
950.88	1074.10
951.18	1076.34
951.48	1079.17
951.77	1077.77
952.07	1077.25
952.37	1078.10
952.67	1077.18
952.97	1073.44
953.26	1075.27
953.56	1071.66
953.86	1068.31
954.16	1069.16
954.45	1072.27
954.75	1072.64
955.05	1074.75
955.35	1075.41
955.64	1075.80
955.94	1072.57
956.24	1071.33
956.54	1070.77
956.83	1071.78
957.13	1068.99
957.43	1073.88
957.72	1075.92
958.02	1076.39
958.32	1075.52
958.61	1075.69
958.91	1072.88
959.21	1072.64
959.50	1070.47
959.80	1070.98
960.10	1072.78
960.39	1069.20
960.69	1068.22
960.99	1068.67
961.28	1070.56
961.58	1070.58
961.87	1072.95
962.17	1072.62
962.47	1073.63
962.76	1072.55
963.06	1071.80
963.36	1073.30
963.65	1077.09
963.95	1079.34
964.24	1078.43
964.54	1079.76
964.83	1080.32
965.13	1079.85
965.42	1077.72
965.72	1077.04
966.02	1073.56
966.31	1075.90
966.61	1074.56
966.90	1075.10
967.20	1074.17
967.49	1076.18
967.79	1071.82
968.08	1072.25
968.38	1072.34
968.67	1073.07
968.97	1073.16
969.26	1074.24
969.56	1072.97
969.85	1073.25
970.15	1074.24
970.44	1072.88
970.74	1072.36
971.03	1069.39
971.32	1069.81
971.62	1071.82
971.91	1073.98
972.21	1073.49
972.50	1075.36
972.80	1077.25
973.09	1074.68
973.38	1072.97
973.68	1073.49
973.97	1074.40
974.27	1071.17
974.56	1070.35
974.85	1071.36
975.15	1074.03
975.44	1074.77
975.73	1077.04
976.03	1079.41
976.32	1081.54
976.61	1078.96
976.91	1077.72
977.20	1079.92
977.49	1077.09
977.79	1074.56
978.08	1073.58
978.37	1074.19
978.67	1070.68
978.96	1074.87
979.25	1076.15
979.55	1077.70
979.84	1076.37
980.13	1077.82
980.42	1075.80
980.72	1075.87
981.01	1073.58
981.30	1074.05
981.59	1073.46
981.89	1073.14
982.18	1071.71
982.47	1074.24
982.76	1075.29
983.06	1074.89
983.35	1074.35
983.64	1074.45
983.93	1072.36
984.22	1073.18
984.52	1073.98
984.81	1074.84
985.10	1079.15
985.39	1079.34
985.68	1078.52
985.97	1078.36
986.27	1078.17
986.56	1074.07
986.85	1077.00
987.14	1076.90
987.43	1075.52
987.72	1075.03
988.01	1076.44
988.31	1077.65
988.60	1077.79
988.89	1077.61
989.18	1076.11
989.47	1075.08
989.76	1070.68
990.05	1069.98
990.34	1069.23
990.63	1069.86
990.92	1072.18
991.21	1074.87
991.51	1076.76
991.80	1076.08
992.09	1078.78
992.38	1075.94
992.67	1075.13
992.96	1073.44
993.25	1075.10
993.54	1073.09
993.83	1075.90
994.12	1074.00
994.41	1075.94
994.70	1076.90
994.99	1077.28
995.28	1073.91
995.57	1075.73
995.86	1075.22
996.15	1075.34
996.44	1074.28
996.73	1075.76
997.02	1074.21
997.31	1071.80
997.59	1072.15
997.88	1073.07
998.17	1071.24
998.46	1073.53
998.75	1075.52
999.04	1071.50
999.33	1071.29
999.62	1071.31
999.91	1071.24
1000.20	1070.65
1000.49	1070.63
1000.77	1069.04
1001.06	1071.01
1001.35	1070.49
1001.64	1072.64
1001.93	1074.82
1002.22	1076.69
1002.51	1075.64
1002.79	1077.58
1003.08	1077.56
1003.37	1076.11
1003.66	1075.22
1003.95	1073.49
1004.23	1070.89
1004.52	1070.54
1004.81	1071.99
1005.10	1073.70
1005.39	1076.58
1005.67	1075.13
1005.96	1075.20
1006.25	1075.52
1006.54	1071.99
1006.83	1069.46
1007.11	1070.49
1007.40	1068.10
1007.69	1069.79
1007.97	1071.12
1008.26	1075.90
1008.55	1075.94
1008.84	1078.10
1009.12	1077.21
1009.41	1078.50
1009.70	1074.21
1009.98	1073.67
1010.27	1069.18
1010.56	1069.93
1010.85	1067.52
1011.13	1068.24
1011.42	1068.62
1011.71	1070.56
1011.99	1069.58
1012.28	1071.59
1012.56	1070.44
1012.85	1071.47
1013.14	1071.94
1013.42	1073.65
1013.71	1076.13
1014.00	1079.06
1014.28	1080.79
1014.57	1079.38
1014.85	1074.98
1015.14	1069.16
1015.43	1065.53
1015.71	1063.91
1016.00	1067.31
1016.28	1070.28
1016.57	1075.55
1016.85	1081.66
1017.14	1079.57
1017.43	1076.37
1017.71	1075.38
1018.00	1073.28
1018.28	1068.57
1018.57	1070.42
1018.85	1070.84
1019.14	1071.05
1019.42	1073.04
1019.71	1072.50
1019.99	1072.34
1020.28	1073.93
1020.56	1072.43
1020.85	1072.22
1021.13	1071.85
1021.42	1070.65
1021.70	1068.24
1021.99	1066.42
1022.27	1063.84
1022.55	1057.34
1022.84	1066.47
>>>>>End Processed Spectral Data<<<<<
