SpectraSuite Data File
++++++++++++++++++++++++++++++++++++
Date: Mon Aug 26 10:22:18 PDT 2019
User: corrico
Dark Spectrum Present: No
Reference Spectrum Present: No
Number of Sampled Component Spectra: 1
Spectrometers: USB2+H06089
Integration Time (usec): 2000 (USB2+H06089)
Spectra Averaged: 20 (USB2+H06089)
Boxcar Smoothing: 2 (USB2+H06089)
Correct for Electrical Dark: No (USB2+H06089)
Strobe/Lamp Enabled: No (USB2+H06089)
Correct for Detector Non-linearity: No (USB2+H06089)
Correct for Stray Light: No (USB2+H06089)
Number of Pixels in Processed Spectrum: 2048
>>>>>Begin Processed Spectral Data<<<<<
339.70	1035.45
340.07	1035.45
340.45	1001.59
340.82	979.02
341.19	955.87
341.57	930.04
341.94	917.42
342.31	907.61
342.69	900.85
343.06	896.54
343.43	894.86
343.81	896.59
344.18	900.73
344.55	902.23
344.93	907.73
345.30	914.33
345.67	921.26
346.04	929.38
346.42	940.47
346.79	949.51
347.16	955.22
347.54	964.65
347.91	974.29
348.28	984.38
348.65	992.81
349.03	1004.51
349.40	1012.59
349.77	1019.14
350.14	1028.55
350.52	1034.94
350.89	1041.00
351.26	1047.93
351.63	1054.81
352.01	1062.72
352.38	1066.77
352.75	1070.82
353.12	1074.33
353.50	1074.38
353.87	1074.19
354.24	1079.29
354.61	1085.94
354.98	1087.97
355.36	1092.05
355.73	1093.45
356.10	1092.68
356.47	1087.95
356.84	1083.32
357.22	1085.33
357.59	1083.69
357.96	1080.88
358.33	1081.91
358.70	1083.79
359.08	1081.70
359.45	1079.31
359.82	1079.34
360.19	1079.76
360.56	1079.24
360.94	1077.54
361.31	1078.05
361.68	1080.63
362.05	1079.74
362.42	1080.63
362.79	1077.61
363.16	1078.52
363.54	1075.36
363.91	1072.01
364.28	1068.71
364.65	1071.33
365.02	1071.01
365.39	1073.39
365.76	1073.02
366.14	1074.47
366.51	1073.04
366.88	1071.03
367.25	1067.96
367.62	1071.15
367.99	1069.79
368.36	1066.56
368.73	1067.59
369.10	1070.98
369.48	1072.71
369.85	1073.72
370.22	1077.23
370.59	1080.02
370.96	1078.14
371.33	1075.55
371.70	1078.57
372.07	1081.70
372.44	1079.71
372.81	1077.82
373.18	1078.57
373.55	1076.88
373.93	1074.98
374.30	1075.99
374.67	1079.55
375.04	1080.27
375.41	1084.81
375.78	1085.68
376.15	1085.80
376.52	1084.51
376.89	1084.25
377.26	1078.85
377.63	1079.31
378.00	1078.85
378.37	1078.78
378.74	1077.68
379.11	1078.10
379.48	1076.97
379.85	1077.58
380.22	1080.16
380.59	1079.48
380.96	1083.04
381.33	1086.01
381.70	1086.48
382.07	1083.86
382.44	1086.57
382.81	1084.67
383.18	1081.40
383.55	1078.71
383.92	1081.51
384.29	1082.22
384.66	1081.84
385.03	1083.20
385.40	1084.70
385.77	1083.53
386.14	1080.95
386.51	1082.24
386.88	1079.64
387.25	1078.73
387.62	1078.94
387.99	1082.15
388.36	1078.82
388.73	1082.31
389.10	1083.36
389.46	1085.10
389.83	1086.90
390.20	1091.77
390.57	1092.07
390.94	1095.21
391.31	1091.37
391.68	1089.05
392.05	1087.51
392.42	1087.11
392.79	1085.05
393.16	1086.73
393.53	1085.61
393.89	1085.45
394.26	1085.61
394.63	1085.42
395.00	1084.14
395.37	1087.69
395.74	1087.30
396.11	1084.84
396.48	1085.70
396.84	1089.22
397.21	1088.42
397.58	1090.71
397.95	1093.36
398.32	1093.99
398.69	1096.19
399.06	1093.19
399.42	1089.52
399.79	1090.95
400.16	1091.44
400.53	1089.57
400.90	1089.96
401.27	1090.27
401.64	1090.69
402.00	1090.85
402.37	1090.15
402.74	1091.84
403.11	1095.44
403.48	1094.90
403.84	1091.37
404.21	1090.50
404.58	1089.71
404.95	1088.58
405.32	1085.40
405.68	1083.62
406.05	1084.46
406.42	1085.52
406.79	1087.04
407.16	1089.61
407.52	1095.63
407.89	1097.34
408.26	1096.33
408.63	1097.13
408.99	1097.06
409.36	1096.38
409.73	1091.56
410.10	1091.13
410.47	1090.29
410.83	1091.30
411.20	1090.60
411.57	1094.72
411.94	1096.89
412.30	1094.62
412.67	1095.11
413.04	1095.39
413.40	1098.69
413.77	1098.34
414.14	1100.85
414.51	1101.64
414.87	1099.65
415.24	1095.89
415.61	1098.81
415.97	1101.08
416.34	1097.45
416.71	1098.90
417.08	1100.57
417.44	1098.90
417.81	1098.72
418.18	1101.13
418.54	1105.22
418.91	1105.72
419.28	1105.08
419.64	1105.69
420.01	1109.77
420.38	1108.59
420.74	1109.93
421.11	1111.24
421.48	1115.73
421.84	1113.88
422.21	1117.21
422.58	1119.85
422.94	1123.34
423.31	1122.99
423.68	1127.06
424.04	1128.56
424.41	1132.68
424.77	1139.12
425.14	1141.08
425.51	1146.30
425.87	1153.93
426.24	1158.68
426.61	1162.85
426.97	1167.62
427.34	1172.82
427.70	1175.23
428.07	1179.70
428.44	1185.81
428.80	1194.56
429.17	1203.46
429.53	1213.80
429.90	1223.30
430.27	1233.02
430.63	1242.71
431.00	1252.00
431.36	1263.73
431.73	1275.62
432.09	1286.24
432.46	1299.47
432.83	1314.73
433.19	1328.02
433.56	1350.82
433.92	1374.57
434.29	1399.92
434.65	1423.79
435.02	1449.40
435.38	1473.37
435.75	1494.67
436.11	1518.70
436.48	1546.95
436.84	1584.73
437.21	1615.88
437.57	1653.26
437.94	1698.55
438.30	1745.95
438.67	1788.24
439.03	1838.80
439.40	1892.67
439.76	1942.15
440.13	1999.68
440.49	2065.94
440.86	2130.07
441.22	2205.21
441.59	2283.71
441.95	2366.42
442.32	2447.45
442.68	2546.20
443.05	2640.26
443.41	2737.77
443.78	2836.33
444.14	2942.54
444.51	3047.38
444.87	3183.74
445.24	3322.67
445.60	3471.44
445.96	3629.02
446.33	3799.02
446.69	3956.86
447.06	4136.97
447.42	4318.45
447.79	4508.41
448.15	4732.54
448.51	4958.47
448.88	5209.63
449.24	5451.76
449.61	5718.84
449.97	5982.85
450.33	6269.45
450.70	6532.15
451.06	6857.16
451.43	7173.86
451.79	7539.10
452.15	7942.58
452.52	8393.72
452.88	8860.99
453.24	9395.75
453.61	9967.03
453.97	10514.72
454.34	11059.20
454.70	11693.15
455.06	12315.27
455.43	12942.16
455.79	13547.09
456.15	14263.83
456.52	14917.69
456.88	15687.67
457.24	16404.86
457.61	17242.09
457.97	18011.62
458.33	18800.99
458.70	19571.93
459.06	20322.22
459.42	21142.60
459.79	21898.94
460.15	22774.89
460.51	23614.46
460.88	24541.57
461.24	25334.57
461.60	26286.51
461.96	27163.49
462.33	28007.90
462.69	28813.07
463.05	29697.07
463.42	30445.03
463.78	31100.94
464.14	31653.90
464.50	32223.49
464.87	32660.16
465.23	32993.62
465.59	33362.51
465.95	33701.42
466.32	33978.38
466.68	34228.77
467.04	34380.97
467.40	34511.27
467.77	34637.59
468.13	34621.63
468.49	34542.12
468.85	34476.61
469.22	34306.14
469.58	33973.86
469.94	33720.07
470.30	33412.36
470.66	32993.85
471.03	32400.08
471.39	32014.46
471.75	31412.19
472.11	30838.92
472.47	30500.34
472.84	30218.35
473.20	29759.26
473.56	29493.21
473.92	29060.70
474.28	28558.56
474.65	28081.40
475.01	27602.01
475.37	27033.40
475.73	26598.53
476.09	26076.73
476.45	25569.72
476.81	25062.06
477.18	24537.76
477.54	24071.19
477.90	23700.05
478.26	23265.46
478.62	22915.74
478.98	22608.92
479.34	22277.22
479.71	21845.62
480.07	21477.22
480.43	21088.93
480.79	20691.67
481.15	20315.55
481.51	20000.42
481.87	19740.03
482.23	19461.39
482.59	19212.22
482.96	18947.97
483.32	18668.00
483.68	18300.53
484.04	17972.20
484.40	17600.08
484.76	17233.88
485.12	16877.04
485.48	16549.69
485.84	16191.52
486.20	15848.12
486.56	15471.46
486.92	15148.35
487.28	14818.80
487.64	14479.00
488.00	14152.42
488.37	13848.39
488.73	13487.88
489.09	13129.38
489.45	12816.89
489.81	12502.88
490.17	12206.48
490.53	11937.93
490.89	11649.10
491.25	11341.28
491.61	11034.24
491.97	10708.93
492.33	10376.20
492.69	10073.62
493.05	9770.19
493.41	9491.57
493.77	9215.79
494.13	8964.04
494.49	8714.75
494.85	8473.98
495.21	8239.72
495.57	8026.94
495.93	7808.38
496.29	7600.98
496.64	7417.81
497.00	7217.16
497.36	7026.45
497.72	6833.90
498.08	6648.64
498.44	6468.80
498.80	6301.10
499.16	6133.47
499.52	5980.70
499.88	5850.10
500.24	5722.21
500.60	5592.97
500.96	5480.27
501.32	5362.94
501.68	5246.12
502.03	5118.61
502.39	4999.64
502.75	4857.55
503.11	4729.64
503.47	4603.76
503.83	4484.02
504.19	4370.01
504.55	4267.12
504.91	4171.77
505.26	4078.52
505.62	3990.82
505.98	3900.55
506.34	3814.65
506.70	3722.58
507.06	3632.30
507.42	3544.65
507.78	3465.37
508.13	3386.83
508.49	3312.65
508.85	3239.40
509.21	3170.23
509.57	3098.17
509.93	3028.75
510.28	2958.09
510.64	2892.01
511.00	2828.26
511.36	2769.25
511.72	2718.77
512.07	2673.03
512.43	2624.63
512.79	2574.92
513.15	2528.01
513.51	2478.70
513.86	2432.24
514.22	2389.69
514.58	2352.19
514.94	2313.13
515.30	2274.18
515.65	2235.35
516.01	2201.27
516.37	2167.87
516.73	2137.10
517.08	2111.02
517.44	2088.16
517.80	2062.27
518.16	2032.22
518.51	2004.55
518.87	1973.17
519.23	1940.28
519.59	1913.29
519.94	1886.50
520.30	1861.83
520.66	1834.68
521.01	1813.56
521.37	1791.26
521.73	1771.74
522.09	1748.52
522.44	1735.72
522.80	1715.54
523.16	1694.95
523.51	1674.26
523.87	1659.53
524.23	1638.00
524.58	1618.36
524.94	1599.05
525.30	1580.24
525.65	1560.18
526.01	1542.67
526.37	1531.27
526.72	1520.93
527.08	1512.20
527.44	1502.65
527.79	1491.32
528.15	1475.90
528.51	1462.32
528.86	1448.84
529.22	1435.80
529.58	1424.87
529.93	1414.83
530.29	1401.49
530.65	1390.51
531.00	1380.89
531.36	1367.27
531.71	1357.98
532.07	1351.47
532.43	1343.30
532.78	1334.27
533.14	1331.09
533.49	1325.16
533.85	1318.87
534.21	1310.61
534.56	1305.81
534.92	1299.25
535.27	1290.57
535.63	1287.36
535.98	1282.03
536.34	1275.40
536.69	1269.86
537.05	1265.86
537.41	1257.92
537.76	1255.25
538.12	1247.60
538.47	1240.84
538.83	1234.89
539.18	1229.02
539.54	1223.94
539.89	1221.10
540.25	1220.87
540.60	1220.61
540.96	1216.24
541.31	1211.46
541.67	1208.89
542.02	1201.89
542.38	1198.05
542.73	1198.31
543.09	1198.05
543.44	1196.97
543.80	1195.80
544.15	1192.60
544.51	1187.59
544.86	1184.01
545.22	1178.37
545.57	1176.24
545.93	1172.05
546.28	1170.27
546.64	1162.82
546.99	1164.39
547.35	1158.40
547.70	1159.74
548.05	1158.10
548.41	1160.32
548.76	1155.59
549.12	1158.05
549.47	1156.90
549.83	1152.48
550.18	1150.79
550.53	1151.01
550.89	1149.04
551.24	1146.32
551.60	1151.01
551.95	1149.04
552.30	1145.15
552.66	1143.56
553.01	1141.69
553.37	1134.22
553.72	1133.76
554.07	1132.82
554.43	1133.97
554.78	1131.46
555.13	1131.93
555.49	1128.21
555.84	1129.45
556.19	1125.10
556.55	1124.93
556.90	1124.49
557.26	1126.06
557.61	1125.03
557.96	1124.39
558.32	1123.53
558.67	1123.69
559.02	1121.54
559.37	1121.70
559.73	1123.74
560.08	1122.50
560.43	1122.54
560.79	1123.71
561.14	1120.79
561.49	1119.95
561.85	1120.02
562.20	1117.58
562.55	1118.26
562.90	1115.15
563.26	1112.20
563.61	1110.33
563.96	1109.74
564.32	1102.04
564.67	1102.98
565.02	1100.08
565.37	1097.73
565.73	1096.80
566.08	1101.32
566.43	1104.38
566.78	1107.61
567.14	1110.65
567.49	1111.68
567.84	1110.91
568.19	1107.40
568.54	1107.24
568.90	1103.91
569.25	1101.71
569.60	1102.32
569.95	1103.07
570.31	1101.92
570.66	1101.25
571.01	1101.48
571.36	1102.51
571.71	1097.97
572.06	1096.07
572.42	1097.41
572.77	1097.48
573.12	1096.54
573.47	1098.51
573.82	1100.45
574.18	1098.90
574.53	1097.08
574.88	1096.68
575.23	1098.81
575.58	1098.30
575.93	1101.53
576.28	1102.44
576.64	1100.31
576.99	1098.46
577.34	1098.20
577.69	1097.97
578.04	1096.05
578.39	1095.32
578.74	1098.04
579.09	1096.05
579.44	1092.49
579.80	1093.19
580.15	1093.29
580.50	1090.01
580.85	1089.96
581.20	1089.24
581.55	1088.37
581.90	1090.46
582.25	1091.30
582.60	1090.67
582.95	1093.47
583.30	1096.87
583.65	1091.04
584.00	1088.40
584.35	1090.48
584.71	1088.79
585.06	1087.88
585.41	1093.62
585.76	1093.80
586.11	1095.79
586.46	1097.06
586.81	1094.11
587.16	1087.90
587.51	1089.33
587.86	1088.65
588.21	1085.49
588.56	1086.99
588.91	1089.96
589.26	1089.14
589.61	1085.03
589.96	1086.83
590.31	1087.23
590.66	1087.62
591.01	1088.14
591.36	1089.31
591.71	1086.92
592.06	1084.11
592.41	1080.27
592.76	1080.44
593.10	1080.18
593.45	1084.00
593.80	1082.05
594.15	1087.76
594.50	1090.69
594.85	1091.02
595.20	1088.93
595.55	1092.14
595.90	1090.71
596.25	1087.53
596.60	1086.41
596.95	1086.66
597.30	1086.64
597.64	1093.94
597.99	1093.38
598.34	1095.44
598.69	1096.40
599.04	1095.82
599.39	1086.97
599.74	1087.11
600.09	1083.15
600.44	1082.29
600.78	1081.40
601.13	1082.17
601.48	1082.12
601.83	1083.25
602.18	1082.73
602.53	1083.08
602.88	1082.15
603.22	1082.50
603.57	1084.46
603.92	1084.49
604.27	1083.22
604.62	1083.50
604.97	1082.22
605.31	1078.71
605.66	1079.27
606.01	1081.28
606.36	1084.30
606.71	1085.99
607.05	1087.95
607.40	1088.42
607.75	1089.24
608.10	1087.25
608.44	1088.12
608.79	1091.74
609.14	1091.06
609.49	1093.05
609.84	1094.22
610.18	1093.24
610.53	1090.20
610.88	1089.85
611.23	1086.66
611.57	1085.38
611.92	1086.57
612.27	1087.09
612.62	1085.38
612.96	1086.52
613.31	1088.89
613.66	1090.29
614.00	1089.40
614.35	1090.48
614.70	1088.91
615.05	1085.21
615.39	1082.50
615.74	1084.11
616.09	1084.60
616.43	1083.74
616.78	1085.84
617.13	1082.29
617.47	1081.05
617.82	1080.74
618.17	1081.91
618.51	1078.85
618.86	1079.76
619.21	1077.11
619.55	1075.50
619.90	1075.41
620.25	1077.14
620.59	1076.32
620.94	1078.92
621.29	1083.76
621.63	1085.21
621.98	1084.77
622.32	1087.20
622.67	1086.08
623.02	1082.29
623.36	1081.94
623.71	1083.18
624.05	1084.49
624.40	1087.23
624.75	1088.21
625.09	1088.98
625.44	1087.93
625.78	1086.10
626.13	1083.25
626.48	1078.80
626.82	1078.12
627.17	1077.23
627.51	1078.85
627.86	1079.97
628.20	1084.77
628.55	1081.63
628.89	1080.16
629.24	1079.24
629.58	1079.55
629.93	1080.18
630.28	1080.77
630.62	1083.27
630.97	1083.39
631.31	1082.29
631.66	1079.15
632.00	1083.13
632.35	1084.65
632.69	1083.41
633.04	1085.59
633.38	1085.03
633.73	1082.31
634.07	1082.45
634.42	1085.87
634.76	1082.31
635.11	1083.81
635.45	1080.53
635.79	1080.79
636.14	1077.44
636.48	1079.99
636.83	1082.15
637.17	1086.03
637.52	1084.39
637.86	1084.16
638.21	1085.28
638.55	1083.22
638.89	1083.71
639.24	1085.56
639.58	1084.49
639.93	1083.46
640.27	1081.02
640.61	1079.55
640.96	1076.30
641.30	1081.47
641.65	1082.76
641.99	1088.40
642.33	1090.27
642.68	1091.20
643.02	1089.71
643.37	1086.64
643.71	1082.12
644.05	1079.46
644.40	1081.30
644.74	1081.28
645.08	1080.53
645.43	1083.25
645.77	1082.19
646.11	1078.26
646.46	1079.41
646.80	1082.83
647.14	1083.90
647.49	1086.34
647.83	1091.25
648.17	1089.00
648.52	1088.82
648.86	1086.55
649.20	1087.11
649.55	1084.65
649.89	1082.43
650.23	1081.61
650.57	1077.47
650.92	1076.90
651.26	1075.97
651.60	1074.12
651.95	1074.07
652.29	1078.71
652.63	1081.61
652.97	1083.39
653.32	1085.03
653.66	1084.39
654.00	1082.71
654.34	1082.05
654.69	1083.11
655.03	1088.54
655.37	1088.33
655.71	1090.67
656.05	1086.34
656.40	1083.48
656.74	1080.39
657.08	1080.02
657.42	1076.90
657.76	1078.66
658.11	1079.34
658.45	1081.94
658.79	1081.56
659.13	1085.12
659.47	1086.31
659.82	1083.86
660.16	1081.49
660.50	1081.00
660.84	1078.66
661.18	1077.82
661.52	1079.92
661.87	1078.82
662.21	1078.85
662.55	1080.93
662.89	1080.11
663.23	1077.98
663.57	1079.62
663.91	1081.14
664.25	1080.27
664.60	1082.38
664.94	1085.68
665.28	1084.91
665.62	1088.21
665.96	1090.03
666.30	1088.75
666.64	1086.62
666.98	1088.30
667.32	1084.46
667.66	1081.91
668.01	1082.05
668.35	1083.32
668.69	1080.32
669.03	1080.81
669.37	1078.05
669.71	1082.24
670.05	1083.29
670.39	1084.84
670.73	1084.74
671.07	1088.70
671.41	1084.32
671.75	1082.57
672.09	1082.76
672.43	1082.54
672.77	1080.23
673.11	1080.18
673.45	1081.14
673.79	1079.13
674.13	1079.38
674.47	1081.77
674.81	1082.57
675.15	1079.55
675.49	1081.47
675.83	1082.83
676.17	1083.04
676.51	1081.84
676.85	1085.26
677.19	1084.46
677.53	1083.48
677.87	1083.36
678.21	1083.41
678.55	1082.78
678.89	1082.19
679.23	1084.56
679.57	1084.42
679.90	1084.72
680.24	1080.95
680.58	1082.17
680.92	1080.74
681.26	1080.02
681.60	1079.74
681.94	1084.35
682.28	1083.36
682.62	1081.87
682.96	1083.18
683.29	1084.37
683.63	1083.20
683.97	1084.28
684.31	1085.07
684.65	1085.82
684.99	1083.01
685.33	1082.40
685.67	1081.96
686.00	1080.20
686.34	1080.77
686.68	1083.46
687.02	1082.64
687.36	1081.89
687.70	1084.42
688.03	1083.93
688.37	1082.10
688.71	1081.35
689.05	1080.98
689.39	1078.14
689.72	1076.62
690.06	1076.62
690.40	1080.23
690.74	1081.66
691.08	1081.42
691.41	1081.84
691.75	1081.14
692.09	1076.88
692.43	1074.52
692.76	1076.67
693.10	1074.45
693.44	1074.94
693.78	1078.00
694.11	1083.04
694.45	1082.19
694.79	1083.53
695.13	1084.23
695.46	1083.15
695.80	1078.14
696.14	1079.83
696.48	1079.85
696.81	1078.61
697.15	1078.89
697.49	1080.34
697.82	1080.27
698.16	1081.47
698.50	1081.33
698.83	1080.81
699.17	1082.19
699.51	1080.06
699.84	1076.04
700.18	1077.00
700.52	1075.27
700.85	1076.34
701.19	1077.09
701.53	1078.36
701.86	1082.24
702.20	1083.76
702.54	1082.10
702.87	1083.74
703.21	1086.71
703.55	1082.87
703.88	1084.32
704.22	1081.40
704.55	1079.06
704.89	1076.48
705.23	1075.69
705.56	1076.13
705.90	1080.67
706.23	1081.89
706.57	1080.93
706.91	1080.65
707.24	1079.17
707.58	1078.07
707.91	1077.98
708.25	1081.33
708.58	1083.36
708.92	1085.42
709.26	1086.15
709.59	1087.18
709.93	1085.63
710.26	1085.12
710.60	1081.70
710.93	1078.64
711.27	1075.92
711.60	1073.79
711.94	1074.87
712.27	1077.28
712.61	1077.33
712.94	1080.91
713.28	1081.66
713.61	1079.92
713.95	1078.75
714.28	1081.44
714.62	1079.34
714.95	1081.35
715.29	1083.81
715.62	1083.48
715.96	1083.08
716.29	1081.28
716.63	1080.04
716.96	1078.19
717.29	1078.26
717.63	1078.52
717.96	1079.64
718.30	1080.53
718.63	1078.07
718.97	1079.06
719.30	1080.86
719.63	1079.97
719.97	1077.21
720.30	1081.40
720.64	1082.69
720.97	1079.03
721.30	1078.78
721.64	1078.85
721.97	1077.07
722.31	1075.03
722.64	1074.40
722.97	1075.80
723.31	1079.55
723.64	1081.58
723.97	1082.54
724.31	1084.53
724.64	1083.46
724.98	1085.99
725.31	1083.95
725.64	1084.70
725.98	1085.10
726.31	1084.96
726.64	1080.58
726.97	1081.21
727.31	1081.66
727.64	1083.79
727.97	1084.58
728.31	1081.89
728.64	1081.00
728.97	1080.58
729.31	1075.24
729.64	1074.33
729.97	1075.83
730.30	1077.96
730.64	1077.89
730.97	1078.61
731.30	1082.08
731.63	1081.80
731.97	1078.28
732.30	1077.04
732.63	1076.58
732.96	1073.46
733.30	1077.09
733.63	1078.82
733.96	1077.70
734.29	1079.76
734.63	1078.57
734.96	1077.58
735.29	1077.09
735.62	1078.19
735.95	1075.83
736.29	1077.70
736.62	1073.74
736.95	1074.80
737.28	1075.76
737.61	1075.57
737.94	1075.52
738.28	1077.35
738.61	1075.50
738.94	1076.04
739.27	1080.70
739.60	1080.34
739.93	1079.20
740.27	1080.86
740.60	1080.81
740.93	1078.99
741.26	1078.33
741.59	1083.06
741.92	1083.22
742.25	1083.79
742.58	1083.29
742.91	1085.59
743.25	1080.30
743.58	1080.65
743.91	1078.64
744.24	1077.25
744.57	1076.62
744.90	1082.78
745.23	1080.98
745.56	1083.18
745.89	1084.98
746.22	1084.02
746.55	1081.05
746.88	1081.73
747.21	1078.75
747.54	1076.74
747.87	1077.04
748.20	1075.08
748.53	1077.72
748.87	1079.71
749.20	1080.44
749.53	1078.07
749.86	1081.54
750.19	1077.98
750.52	1076.53
750.85	1076.18
751.18	1077.44
751.51	1076.48
751.84	1076.25
752.16	1075.20
752.49	1080.48
752.82	1085.52
753.15	1083.48
753.48	1083.22
753.81	1081.66
754.14	1081.80
754.47	1080.27
754.80	1080.04
755.13	1079.57
755.46	1082.76
755.79	1076.39
756.12	1072.97
756.45	1073.67
756.78	1076.95
757.11	1075.41
757.43	1076.30
757.76	1075.97
758.09	1075.08
758.42	1072.95
758.75	1072.76
759.08	1073.16
759.41	1075.20
759.74	1079.03
760.07	1081.42
760.39	1079.13
760.72	1079.88
761.05	1077.02
761.38	1073.16
761.71	1070.09
762.04	1073.07
762.36	1071.85
762.69	1074.19
763.02	1075.90
763.35	1079.03
763.68	1079.03
764.01	1079.46
764.33	1078.92
764.66	1079.10
764.99	1079.64
765.32	1083.39
765.65	1083.08
765.97	1082.45
766.30	1080.16
766.63	1079.97
766.96	1074.59
767.28	1075.52
767.61	1076.04
767.94	1076.46
768.27	1076.69
768.59	1081.21
768.92	1080.30
769.25	1082.57
769.58	1086.64
769.90	1085.28
770.23	1082.17
770.56	1081.58
770.89	1081.02
771.21	1077.68
771.54	1075.76
771.87	1077.75
772.19	1079.41
772.52	1077.89
772.85	1079.41
773.17	1081.70
773.50	1079.20
773.83	1077.40
774.15	1077.28
774.48	1077.37
774.81	1077.30
775.13	1079.74
775.46	1081.05
775.79	1081.73
776.11	1080.88
776.44	1079.88
776.77	1080.04
777.09	1079.36
777.42	1078.57
777.74	1077.40
778.07	1077.00
778.40	1074.66
778.72	1075.08
779.05	1074.42
779.37	1072.43
779.70	1070.70
780.03	1072.71
780.35	1074.14
780.68	1076.25
781.00	1080.77
781.33	1085.87
781.65	1084.00
781.98	1080.37
782.31	1079.41
782.63	1078.92
782.96	1073.60
783.28	1075.43
783.61	1079.06
783.93	1076.65
784.26	1077.14
784.58	1077.68
784.91	1076.62
785.23	1078.07
785.56	1080.65
785.88	1079.76
786.21	1083.46
786.53	1084.00
786.86	1082.61
787.18	1081.37
787.51	1079.48
787.83	1074.73
788.16	1075.01
788.48	1072.15
788.81	1071.68
789.13	1072.27
789.46	1076.04
789.78	1076.72
790.10	1078.24
790.43	1082.36
790.75	1086.62
791.08	1086.10
791.40	1084.28
791.73	1086.83
792.05	1084.49
792.37	1081.35
792.70	1080.79
793.02	1084.98
793.35	1083.13
793.67	1085.05
793.99	1082.08
794.32	1084.44
794.64	1081.42
794.96	1082.97
795.29	1082.17
795.61	1084.53
795.93	1084.00
796.26	1086.06
796.58	1083.62
796.91	1078.40
797.23	1077.09
797.55	1074.73
797.87	1073.70
798.20	1074.21
798.52	1077.40
798.84	1078.68
799.17	1078.80
799.49	1079.50
799.81	1080.56
800.14	1083.55
800.46	1084.63
800.78	1084.84
801.10	1083.81
801.43	1082.61
801.75	1075.10
802.07	1073.14
802.40	1073.39
802.72	1075.10
803.04	1076.58
803.36	1081.42
803.69	1080.95
804.01	1083.04
804.33	1078.75
804.65	1074.96
804.97	1075.64
805.30	1076.83
805.62	1076.72
805.94	1077.70
806.26	1082.40
806.58	1082.26
806.91	1081.89
807.23	1079.85
807.55	1078.05
807.87	1076.58
808.19	1075.31
808.52	1075.38
808.84	1072.71
809.16	1069.72
809.48	1069.27
809.80	1068.92
810.12	1067.24
810.44	1072.34
810.77	1077.47
811.09	1079.43
811.41	1080.81
811.73	1083.15
812.05	1083.15
812.37	1085.24
812.69	1083.50
813.01	1080.34
813.33	1076.88
813.66	1076.93
813.98	1074.70
814.30	1075.45
814.62	1078.57
814.94	1079.78
815.26	1076.01
815.58	1073.60
815.90	1074.35
816.22	1075.48
816.54	1078.54
816.86	1079.64
817.18	1082.22
817.50	1078.87
817.82	1077.25
818.14	1077.49
818.46	1079.95
818.78	1080.58
819.10	1082.87
819.42	1084.74
819.74	1083.79
820.06	1080.84
820.38	1080.16
820.70	1080.72
821.02	1079.48
821.34	1078.61
821.66	1080.72
821.98	1080.23
822.30	1077.28
822.62	1079.97
822.94	1078.73
823.26	1075.99
823.58	1076.18
823.90	1075.83
824.22	1073.37
824.54	1076.46
824.86	1075.94
825.18	1078.47
825.50	1077.35
825.81	1073.88
826.13	1069.74
826.45	1071.17
826.77	1069.60
827.09	1072.62
827.41	1072.34
827.73	1074.77
828.05	1077.77
828.36	1077.68
828.68	1077.82
829.00	1080.37
829.32	1079.64
829.64	1077.72
829.96	1078.85
830.28	1080.32
830.59	1083.06
830.91	1084.25
831.23	1083.06
831.55	1079.97
831.87	1078.54
832.19	1077.49
832.50	1078.85
832.82	1081.16
833.14	1082.71
833.46	1080.13
833.78	1080.67
834.09	1076.81
834.41	1073.39
834.73	1072.55
835.05	1074.89
835.36	1072.34
835.68	1075.08
836.00	1075.90
836.32	1076.69
836.63	1075.83
836.95	1079.69
837.27	1080.34
837.59	1078.78
837.90	1079.53
838.22	1080.67
838.54	1079.01
838.85	1078.14
839.17	1080.18
839.49	1076.97
839.80	1076.06
840.12	1073.51
840.44	1075.90
840.76	1074.66
841.07	1076.83
841.39	1077.18
841.71	1078.31
842.02	1077.18
842.34	1077.25
842.65	1077.44
842.97	1079.74
843.29	1081.44
843.60	1078.75
843.92	1079.55
844.24	1078.12
844.55	1077.25
844.87	1074.77
845.18	1077.11
845.50	1076.25
845.82	1075.76
846.13	1073.88
846.45	1074.40
846.76	1074.21
847.08	1077.93
847.40	1079.83
847.71	1080.11
848.03	1083.81
848.34	1082.66
848.66	1079.01
848.97	1077.47
849.29	1077.11
849.60	1073.04
849.92	1069.67
850.24	1072.78
850.55	1073.84
850.87	1075.17
851.18	1075.01
851.50	1078.92
851.81	1076.08
852.13	1078.45
852.44	1076.08
852.76	1076.34
853.07	1076.11
853.39	1077.28
853.70	1073.32
854.01	1074.77
854.33	1075.41
854.64	1076.88
854.96	1078.68
855.27	1082.10
855.59	1082.59
855.90	1084.63
856.22	1083.27
856.53	1080.51
856.84	1078.99
857.16	1079.74
857.47	1078.52
857.79	1076.58
858.10	1076.58
858.41	1078.24
858.73	1076.48
859.04	1072.64
859.36	1074.96
859.67	1074.73
859.98	1073.49
860.30	1073.95
860.61	1075.94
860.92	1074.49
861.24	1077.44
861.55	1077.33
861.87	1077.07
862.18	1080.88
862.49	1080.25
862.81	1079.17
863.12	1079.62
863.43	1077.40
863.74	1075.48
864.06	1077.47
864.37	1076.44
864.68	1073.42
865.00	1076.20
865.31	1073.21
865.62	1073.77
865.94	1075.55
866.25	1079.43
866.56	1076.72
866.87	1078.14
867.19	1078.07
867.50	1075.99
867.81	1073.91
868.12	1076.97
868.44	1078.10
868.75	1076.86
869.06	1079.64
869.37	1079.67
869.68	1076.65
870.00	1076.23
870.31	1075.03
870.62	1072.22
870.93	1074.94
871.24	1077.68
871.56	1077.51
871.87	1078.92
872.18	1076.53
872.49	1075.45
872.80	1075.31
873.12	1074.47
873.43	1077.16
873.74	1079.31
874.05	1078.28
874.36	1077.84
874.67	1079.24
874.98	1073.91
875.29	1074.40
875.61	1071.64
875.92	1070.98
876.23	1071.94
876.54	1074.73
876.85	1074.54
877.16	1076.65
877.47	1078.26
877.78	1079.17
878.09	1078.38
878.40	1076.81
878.72	1075.90
879.03	1075.99
879.34	1073.09
879.65	1073.88
879.96	1072.13
880.27	1073.58
880.58	1070.77
880.89	1071.94
881.20	1074.56
881.51	1080.23
881.82	1078.80
882.13	1083.79
882.44	1083.11
882.75	1081.75
883.06	1077.07
883.37	1076.55
883.68	1072.69
883.99	1074.31
884.30	1072.76
884.61	1075.36
884.92	1078.31
885.23	1076.72
885.54	1075.45
885.85	1074.19
886.16	1074.33
886.47	1072.13
886.78	1076.76
887.08	1077.14
887.39	1079.06
887.70	1079.01
888.01	1079.95
888.32	1076.76
888.63	1074.45
888.94	1074.05
889.25	1075.50
889.56	1076.18
889.87	1077.89
890.17	1077.79
890.48	1076.37
890.79	1075.41
891.10	1072.04
891.41	1071.24
891.72	1074.10
892.03	1076.23
892.34	1077.44
892.64	1080.23
892.95	1082.61
893.26	1079.69
893.57	1078.71
893.88	1075.48
894.18	1076.65
894.49	1076.53
894.80	1077.49
895.11	1076.27
895.42	1079.17
895.72	1077.40
896.03	1073.23
896.34	1075.73
896.65	1079.27
896.96	1074.80
897.26	1076.34
897.57	1077.70
897.88	1074.70
898.19	1073.72
898.49	1075.08
898.80	1072.41
899.11	1072.83
899.41	1076.04
899.72	1075.01
900.03	1078.14
900.34	1079.76
900.64	1080.72
900.95	1081.09
901.26	1081.28
901.56	1080.06
901.87	1082.31
902.18	1081.82
902.48	1080.44
902.79	1079.67
903.10	1079.74
903.40	1078.28
903.71	1079.01
904.02	1078.96
904.32	1081.66
904.63	1081.28
904.94	1080.23
905.24	1079.53
905.55	1082.38
905.85	1081.91
906.16	1082.03
906.47	1082.69
906.77	1082.71
907.08	1078.17
907.38	1078.17
907.69	1076.27
908.00	1076.97
908.30	1074.12
908.61	1073.56
908.91	1072.71
909.22	1079.36
909.52	1079.76
909.83	1087.48
910.14	1090.20
910.44	1090.36
910.75	1085.87
911.05	1086.17
911.36	1082.92
911.66	1081.96
911.97	1081.51
912.27	1079.31
912.58	1078.00
912.88	1075.45
913.19	1076.01
913.49	1073.30
913.80	1073.84
914.10	1073.91
914.41	1073.00
914.71	1070.37
915.01	1074.73
915.32	1074.52
915.62	1074.87
915.93	1075.92
916.23	1076.83
916.54	1074.61
916.84	1078.12
917.15	1076.48
917.45	1080.34
917.75	1082.38
918.06	1086.78
918.36	1083.48
918.67	1083.22
918.97	1077.54
919.27	1075.87
919.58	1072.25
919.88	1073.70
920.18	1076.53
920.49	1079.46
920.79	1079.17
921.10	1076.20
921.40	1077.61
921.70	1074.66
922.01	1073.28
922.31	1075.05
922.61	1076.55
922.92	1074.70
923.22	1074.35
923.52	1073.39
923.82	1074.61
924.13	1078.43
924.43	1075.17
924.73	1076.06
925.04	1080.74
925.34	1079.06
925.64	1074.28
925.94	1076.51
926.25	1075.50
926.55	1073.42
926.85	1071.66
927.15	1069.93
927.46	1069.86
927.76	1070.42
928.06	1067.75
928.36	1069.25
928.67	1070.91
928.97	1075.69
929.27	1075.29
929.57	1076.13
929.87	1075.66
930.18	1079.60
930.48	1077.63
930.78	1078.19
931.08	1080.51
931.38	1078.75
931.69	1076.30
931.99	1074.07
932.29	1074.77
932.59	1070.02
932.89	1070.68
933.19	1072.22
933.49	1072.13
933.80	1070.54
934.10	1072.06
934.40	1070.56
934.70	1070.98
935.00	1071.57
935.30	1072.71
935.60	1073.28
935.90	1076.55
936.20	1074.91
936.50	1075.13
936.81	1076.23
937.11	1077.42
937.41	1077.16
937.71	1077.98
938.01	1077.75
938.31	1076.83
938.61	1076.04
938.91	1077.42
939.21	1076.88
939.51	1079.41
939.81	1082.61
940.11	1082.50
940.41	1081.02
940.71	1080.13
941.01	1078.10
941.31	1078.80
941.61	1079.20
941.91	1079.41
942.21	1077.54
942.51	1076.39
942.81	1073.51
943.11	1074.77
943.41	1074.73
943.71	1077.25
944.01	1076.76
944.31	1078.17
944.61	1077.11
944.90	1078.73
945.20	1078.21
945.50	1079.13
945.80	1077.23
946.10	1079.08
946.40	1077.02
946.70	1077.11
947.00	1077.86
947.30	1074.87
947.60	1073.49
947.89	1073.09
948.19	1074.07
948.49	1075.17
948.79	1080.37
949.09	1080.81
949.39	1080.18
949.69	1077.54
949.98	1078.61
950.28	1073.86
950.58	1073.39
950.88	1075.50
951.18	1076.30
951.48	1075.92
951.77	1076.86
952.07	1077.49
952.37	1075.22
952.67	1076.90
952.97	1075.05
953.26	1077.42
953.56	1075.24
953.86	1075.17
954.16	1074.77
954.45	1073.49
954.75	1072.95
955.05	1072.90
955.35	1073.95
955.64	1073.39
955.94	1075.97
956.24	1078.89
956.54	1080.98
956.83	1081.44
957.13	1080.60
957.43	1078.99
957.72	1076.27
958.02	1074.10
958.32	1076.74
958.61	1078.19
958.91	1079.22
959.21	1077.54
959.50	1077.44
959.80	1076.76
960.10	1072.46
960.39	1072.20
960.69	1075.20
960.99	1076.23
961.28	1073.63
961.58	1078.17
961.87	1078.36
962.17	1077.16
962.47	1080.46
962.76	1082.24
963.06	1080.39
963.36	1080.95
963.65	1077.93
963.95	1078.40
964.24	1075.57
964.54	1075.73
964.83	1072.64
965.13	1076.01
965.42	1075.05
965.72	1077.79
966.02	1075.22
966.31	1079.03
966.61	1078.24
966.90	1074.89
967.20	1072.39
967.49	1076.79
967.79	1074.89
968.08	1072.78
968.38	1072.71
968.67	1073.60
968.97	1075.94
969.26	1075.48
969.56	1076.90
969.85	1079.24
970.15	1081.05
970.44	1077.84
970.74	1075.29
971.03	1076.53
971.32	1074.17
971.62	1073.46
971.91	1073.04
972.21	1077.40
972.50	1079.31
972.80	1080.53
973.09	1082.19
973.38	1084.11
973.68	1082.33
973.97	1080.27
974.27	1081.51
974.56	1079.60
974.85	1080.63
975.15	1081.00
975.44	1081.28
975.73	1078.47
976.03	1078.75
976.32	1076.53
976.61	1077.49
976.91	1076.81
977.20	1076.67
977.49	1076.79
977.79	1076.18
978.08	1075.66
978.37	1075.90
978.67	1077.51
978.96	1075.36
979.25	1075.17
979.55	1077.00
979.84	1075.71
980.13	1078.14
980.42	1079.88
980.72	1078.61
981.01	1076.51
981.30	1078.52
981.59	1080.56
981.89	1079.62
982.18	1079.50
982.47	1080.09
982.76	1077.91
983.06	1074.05
983.35	1074.80
983.64	1076.97
983.93	1078.99
984.22	1079.34
984.52	1076.23
984.81	1075.69
985.10	1075.52
985.39	1072.67
985.68	1071.52
985.97	1071.05
986.27	1072.46
986.56	1071.66
986.85	1069.30
987.14	1070.51
987.43	1074.00
987.72	1074.82
988.01	1075.41
988.31	1078.31
988.60	1081.35
988.89	1081.80
989.18	1079.13
989.47	1078.40
989.76	1079.48
990.05	1078.45
990.34	1077.16
990.63	1079.71
990.92	1080.37
991.21	1078.33
991.51	1077.00
991.80	1078.71
992.09	1079.88
992.38	1082.33
992.67	1086.06
992.96	1085.75
993.25	1085.40
993.54	1083.83
993.83	1081.58
994.12	1079.27
994.41	1079.78
994.70	1076.81
994.99	1077.68
995.28	1080.20
995.57	1077.79
995.86	1073.39
996.15	1075.36
996.44	1075.64
996.73	1073.58
997.02	1074.84
997.31	1081.87
997.59	1084.49
997.88	1082.17
998.17	1082.87
998.46	1081.26
998.75	1080.63
999.04	1076.74
999.33	1076.95
999.62	1071.85
999.91	1071.92
1000.20	1070.23
1000.49	1072.41
1000.77	1071.78
1001.06	1077.00
1001.35	1077.93
1001.64	1076.44
1001.93	1075.20
1002.22	1077.47
1002.51	1077.77
1002.79	1076.04
1003.08	1078.00
1003.37	1081.14
1003.66	1079.55
1003.95	1080.13
1004.23	1083.86
1004.52	1081.58
1004.81	1078.52
1005.10	1079.57
1005.39	1075.90
1005.67	1075.57
1005.96	1078.36
1006.25	1079.03
1006.54	1081.82
1006.83	1083.67
1007.11	1081.58
1007.40	1081.87
1007.69	1080.51
1007.97	1075.71
1008.26	1073.37
1008.55	1074.70
1008.84	1073.98
1009.12	1076.08
1009.41	1076.76
1009.70	1078.59
1009.98	1076.06
1010.27	1074.84
1010.56	1073.46
1010.85	1072.41
1011.13	1071.17
1011.42	1071.97
1011.71	1072.39
1011.99	1070.75
1012.28	1074.19
1012.56	1072.76
1012.85	1075.90
1013.14	1074.21
1013.42	1073.51
1013.71	1070.02
1014.00	1073.39
1014.28	1072.43
1014.57	1073.70
1014.85	1080.91
1015.14	1082.50
1015.43	1082.69
1015.71	1080.27
1016.00	1077.40
1016.28	1072.22
1016.57	1071.47
1016.85	1069.53
1017.14	1074.45
1017.43	1081.07
1017.71	1081.75
1018.00	1083.64
1018.28	1086.31
1018.57	1083.29
1018.85	1080.53
1019.14	1079.31
1019.42	1078.43
1019.71	1078.38
1019.99	1079.99
1020.28	1077.89
1020.56	1080.32
1020.85	1077.93
1021.13	1074.77
1021.42	1074.40
1021.70	1078.17
1021.99	1077.89
1022.27	1078.52
1022.55	1081.56
1022.84	1072.43
>>>>>End Processed Spectral Data<<<<<
