SpectraSuite Data File
++++++++++++++++++++++++++++++++++++
Date: Mon Aug 26 10:22:00 PDT 2019
User: corrico
Dark Spectrum Present: No
Reference Spectrum Present: No
Number of Sampled Component Spectra: 1
Spectrometers: USB2+H06089
Integration Time (usec): 2000 (USB2+H06089)
Spectra Averaged: 20 (USB2+H06089)
Boxcar Smoothing: 2 (USB2+H06089)
Correct for Electrical Dark: No (USB2+H06089)
Strobe/Lamp Enabled: No (USB2+H06089)
Correct for Detector Non-linearity: No (USB2+H06089)
Correct for Stray Light: No (USB2+H06089)
Number of Pixels in Processed Spectrum: 2048
>>>>>Begin Processed Spectral Data<<<<<
339.70	1031.36
340.07	1031.36
340.45	990.82
340.82	969.89
341.19	943.94
341.57	917.82
341.94	910.30
342.31	902.93
342.69	895.58
343.06	891.91
343.43	894.81
343.81	893.90
344.18	896.68
344.55	902.98
344.93	911.71
345.30	914.45
345.67	922.45
346.04	932.42
346.42	939.26
346.79	946.65
347.16	951.64
347.54	961.52
347.91	969.19
348.28	978.30
348.65	990.02
349.03	1003.55
349.40	1009.59
349.77	1020.68
350.14	1028.01
350.52	1032.93
350.89	1037.93
351.26	1047.53
351.63	1050.74
352.01	1056.54
352.38	1059.23
352.75	1063.98
353.12	1064.38
353.50	1068.10
353.87	1071.54
354.24	1077.63
354.61	1079.29
354.98	1081.07
355.36	1082.05
355.73	1082.47
356.10	1080.51
356.47	1079.01
356.84	1083.48
357.22	1083.74
357.59	1083.39
357.96	1083.50
358.33	1088.19
358.70	1085.89
359.08	1085.70
359.45	1087.02
359.82	1084.60
360.19	1082.10
360.56	1080.56
360.94	1079.27
361.31	1076.39
361.68	1078.45
362.05	1078.64
362.42	1080.18
362.79	1080.09
363.16	1081.47
363.54	1082.08
363.91	1080.95
364.28	1078.38
364.65	1077.54
365.02	1075.90
365.39	1072.64
365.76	1072.74
366.14	1073.42
366.51	1072.88
366.88	1072.60
367.25	1073.60
367.62	1073.23
367.99	1073.77
368.36	1073.14
368.73	1073.09
369.10	1074.77
369.48	1073.74
369.85	1072.62
370.22	1074.10
370.59	1074.45
370.96	1072.15
371.33	1074.87
371.70	1075.73
372.07	1075.64
372.44	1076.74
372.81	1077.58
373.18	1073.30
373.55	1072.46
373.93	1072.85
374.30	1070.00
374.67	1069.25
375.04	1070.54
375.41	1072.13
375.78	1071.08
376.15	1069.18
376.52	1070.80
376.89	1073.65
377.26	1073.18
377.63	1078.36
378.00	1084.07
378.37	1082.83
378.74	1080.13
379.11	1080.60
379.48	1075.62
379.85	1073.18
380.22	1073.02
380.59	1072.97
380.96	1071.61
381.33	1073.28
381.70	1074.17
382.07	1077.23
382.44	1079.15
382.81	1080.25
383.18	1079.41
383.55	1076.93
383.92	1075.57
384.29	1072.29
384.66	1072.18
385.03	1071.50
385.40	1075.38
385.77	1074.61
386.14	1077.93
386.51	1079.01
386.88	1083.36
387.25	1082.52
387.62	1080.67
387.99	1080.11
388.36	1080.13
388.73	1076.18
389.10	1075.27
389.46	1077.21
389.83	1077.82
390.20	1076.76
390.57	1076.20
390.94	1077.25
391.31	1080.06
391.68	1080.20
392.05	1081.07
392.42	1084.81
392.79	1088.02
393.16	1086.78
393.53	1086.03
393.89	1084.42
394.26	1084.07
394.63	1082.97
395.00	1082.10
395.37	1082.01
395.74	1080.65
396.11	1078.75
396.48	1078.82
396.84	1079.76
397.21	1079.48
397.58	1080.46
397.95	1081.28
398.32	1077.82
398.69	1077.40
399.06	1079.99
399.42	1081.66
399.79	1080.44
400.16	1082.17
400.53	1082.45
400.90	1082.03
401.27	1083.25
401.64	1084.42
402.00	1083.95
402.37	1084.60
402.74	1086.08
403.11	1083.88
403.48	1084.96
403.84	1085.75
404.21	1085.68
404.58	1083.43
404.95	1086.73
405.32	1085.47
405.68	1084.58
406.05	1084.93
406.42	1085.10
406.79	1084.23
407.16	1084.65
407.52	1089.57
407.89	1091.67
408.26	1095.07
408.63	1094.69
408.99	1097.24
409.36	1093.01
409.73	1093.85
410.10	1092.16
410.47	1091.02
410.83	1092.59
411.20	1093.36
411.57	1091.72
411.94	1091.02
412.30	1092.42
412.67	1087.06
413.04	1090.27
413.40	1089.80
413.77	1088.79
414.14	1090.06
414.51	1095.98
414.87	1092.91
415.24	1095.63
415.61	1098.20
415.97	1098.11
416.34	1094.04
416.71	1092.94
417.08	1089.96
417.44	1088.68
417.81	1088.84
418.18	1091.37
418.54	1094.72
418.91	1095.67
419.28	1099.28
419.64	1101.39
420.01	1102.35
420.38	1102.74
420.74	1105.74
421.11	1103.84
421.48	1103.23
421.84	1103.28
422.21	1105.48
422.58	1104.87
422.94	1108.66
423.31	1115.10
423.68	1117.61
424.04	1120.23
424.41	1123.62
424.77	1127.83
425.14	1126.80
425.51	1129.45
425.87	1131.49
426.24	1135.02
426.61	1138.06
426.97	1144.48
427.34	1150.77
427.70	1156.60
428.07	1160.60
428.44	1167.01
428.80	1169.38
429.17	1179.28
429.53	1185.83
429.90	1194.05
430.27	1201.49
430.63	1214.25
431.00	1218.48
431.36	1229.65
431.73	1238.71
432.09	1249.28
432.46	1256.89
432.83	1267.54
433.19	1280.30
433.56	1294.08
433.92	1309.18
434.29	1326.33
434.65	1347.26
435.02	1365.63
435.38	1389.79
435.75	1409.38
436.11	1432.83
436.48	1453.87
436.84	1480.53
437.21	1507.21
437.57	1539.30
437.94	1570.31
438.30	1606.94
438.67	1646.73
439.03	1684.11
439.40	1724.25
439.76	1769.00
440.13	1817.59
440.49	1866.41
440.86	1917.79
441.22	1973.66
441.59	2034.86
441.95	2103.35
442.32	2162.16
442.68	2238.23
443.05	2313.15
443.41	2392.17
443.78	2471.91
444.14	2566.12
444.51	2652.65
444.87	2758.06
445.24	2859.34
445.60	2968.31
445.96	3077.08
446.33	3212.43
446.69	3334.61
447.06	3477.24
447.42	3622.10
447.79	3766.06
448.15	3930.84
448.51	4108.16
448.88	4293.76
449.24	4467.08
449.61	4697.13
449.97	4918.92
450.33	5147.52
450.70	5369.38
451.06	5639.31
451.43	5875.47
451.79	6149.36
452.15	6449.70
452.52	6789.99
452.88	7126.79
453.24	7531.49
453.61	7949.91
453.97	8364.09
454.34	8756.34
454.70	9205.96
455.06	9636.76
455.43	10061.42
455.79	10478.77
456.15	10994.39
456.52	11486.23
456.88	12080.79
457.24	12671.78
457.61	13368.60
457.97	13986.34
458.33	14654.75
458.70	15320.80
459.06	15965.78
459.42	16649.03
459.79	17299.95
460.15	18010.31
460.51	18605.48
460.88	19257.79
461.24	19826.23
461.60	20526.03
461.96	21093.12
462.33	21647.01
462.69	22209.20
463.05	22812.38
463.42	23363.58
463.78	23905.74
464.14	24400.23
464.50	24927.31
464.87	25364.43
465.23	25617.51
465.59	25907.86
465.95	26178.14
466.32	26331.49
466.68	26455.22
467.04	26580.74
467.40	26658.16
467.77	26730.28
468.13	26686.13
468.49	26526.41
468.85	26404.10
469.22	26254.61
469.58	26046.42
469.94	25891.15
470.30	25677.20
470.66	25374.52
471.03	24941.08
471.39	24605.51
471.75	24126.94
472.11	23698.84
472.47	23350.78
472.84	23022.89
473.20	22558.97
473.56	22211.38
473.92	21757.74
474.28	21316.43
474.65	20914.25
475.01	20537.24
475.37	20086.85
475.73	19744.38
476.09	19339.10
476.45	18952.51
476.81	18580.48
477.18	18237.08
477.54	17979.43
477.90	17751.84
478.26	17452.46
478.62	17210.31
478.98	17036.31
479.34	16862.30
479.71	16654.22
480.07	16452.00
480.43	16213.57
480.79	15891.18
481.15	15522.13
481.51	15206.09
481.87	14964.85
482.23	14698.45
482.59	14450.23
482.96	14220.42
483.32	13991.96
483.68	13711.98
484.04	13473.67
484.40	13257.45
484.76	13025.43
485.12	12789.13
485.48	12598.17
485.84	12379.47
486.20	12156.84
486.56	11923.65
486.92	11683.98
487.28	11420.97
487.64	11167.40
488.00	10903.99
488.37	10646.47
488.73	10378.80
489.09	10094.38
489.45	9838.37
489.81	9586.51
490.17	9340.24
490.53	9082.89
490.89	8825.83
491.25	8555.50
491.61	8308.71
491.97	8065.35
492.33	7859.89
492.69	7674.41
493.05	7491.14
493.41	7323.51
493.77	7147.27
494.13	6962.39
494.49	6790.53
494.85	6615.71
495.21	6442.25
495.57	6279.21
495.93	6117.95
496.29	5947.32
496.64	5794.60
497.00	5630.63
497.36	5495.69
497.72	5370.03
498.08	5254.92
498.44	5144.97
498.80	5042.33
499.16	4909.77
499.52	4773.19
499.88	4642.64
500.24	4511.87
500.60	4379.12
500.96	4272.84
501.32	4177.39
501.68	4080.28
502.03	3991.64
502.39	3912.37
502.75	3830.36
503.11	3750.01
503.47	3678.62
503.83	3596.33
504.19	3513.64
504.55	3437.71
504.91	3359.30
505.26	3280.99
505.62	3211.99
505.98	3141.49
506.34	3071.49
506.70	3005.13
507.06	2941.35
507.42	2877.08
507.78	2821.40
508.13	2767.05
508.49	2712.70
508.85	2661.84
509.21	2609.60
509.57	2565.74
509.93	2517.46
510.28	2474.06
510.64	2427.44
511.00	2383.95
511.36	2338.12
511.72	2294.57
512.07	2255.18
512.43	2218.45
512.79	2180.54
513.15	2140.07
513.51	2107.84
513.86	2076.66
514.22	2047.95
514.58	2016.89
514.94	1984.52
515.30	1951.68
515.65	1919.29
516.01	1892.91
516.37	1866.11
516.73	1850.73
517.08	1831.07
517.44	1804.88
517.80	1779.44
518.16	1756.22
518.51	1733.68
518.87	1710.32
519.23	1694.92
519.59	1678.21
519.94	1664.66
520.30	1648.46
520.66	1634.42
521.01	1618.53
521.37	1597.95
521.73	1580.52
522.09	1563.31
522.44	1551.17
522.80	1537.66
523.16	1525.37
523.51	1510.51
523.87	1497.29
524.23	1479.41
524.58	1466.95
524.94	1456.14
525.30	1446.38
525.65	1434.28
526.01	1423.70
526.37	1410.80
526.72	1399.90
527.08	1388.73
527.44	1377.92
527.79	1370.73
528.15	1364.46
528.51	1358.07
528.86	1351.99
529.22	1345.78
529.58	1339.02
529.93	1329.54
530.29	1321.84
530.65	1315.92
531.00	1307.73
531.36	1300.43
531.71	1295.60
532.07	1286.62
532.43	1277.84
532.78	1272.92
533.14	1263.23
533.49	1255.32
533.85	1251.06
534.21	1243.62
534.56	1236.65
534.92	1230.35
535.27	1227.00
535.63	1223.56
535.98	1222.39
536.34	1217.73
536.69	1217.94
537.05	1212.80
537.41	1209.82
537.76	1206.57
538.12	1204.91
538.47	1199.78
538.83	1196.39
539.18	1191.85
539.54	1189.46
539.89	1186.49
540.25	1184.78
540.60	1184.19
540.96	1183.26
541.31	1177.29
541.67	1175.21
542.02	1172.44
542.38	1167.88
542.73	1167.51
543.09	1167.46
543.44	1166.66
543.80	1166.69
544.15	1165.61
544.51	1162.92
544.86	1159.69
545.22	1153.06
545.57	1148.24
545.93	1146.70
546.28	1142.79
546.64	1142.20
546.99	1141.85
547.35	1142.67
547.70	1139.79
548.05	1139.82
548.41	1139.35
548.76	1137.76
549.12	1135.91
549.47	1135.86
549.83	1130.24
550.18	1126.52
550.53	1128.40
550.89	1127.51
551.24	1124.28
551.60	1128.23
551.95	1130.06
552.30	1128.33
552.66	1127.30
553.01	1127.72
553.37	1125.52
553.72	1124.70
554.07	1121.42
554.43	1120.11
554.78	1117.77
555.13	1115.29
555.49	1113.49
555.84	1112.32
556.19	1109.46
556.55	1107.38
556.90	1107.19
557.26	1104.26
557.61	1103.82
557.96	1104.76
558.32	1106.16
558.67	1103.96
559.02	1106.28
559.37	1106.70
559.73	1106.79
560.08	1108.17
560.43	1107.75
560.79	1103.73
561.14	1102.35
561.49	1098.41
561.85	1098.48
562.20	1097.80
562.55	1099.47
562.90	1100.80
563.26	1103.23
563.61	1095.32
563.96	1093.85
564.32	1095.14
564.67	1094.32
565.02	1095.72
565.37	1101.71
565.73	1103.23
566.08	1097.76
566.43	1097.20
566.78	1092.98
567.14	1090.17
567.49	1088.58
567.84	1091.27
568.19	1092.75
568.54	1092.12
568.90	1093.47
569.25	1096.40
569.60	1097.95
569.95	1097.62
570.31	1101.39
570.66	1101.69
571.01	1098.32
571.36	1099.07
571.71	1097.97
572.06	1095.16
572.42	1089.59
572.77	1092.02
573.12	1093.33
573.47	1093.52
573.82	1095.14
574.18	1101.60
574.53	1097.55
574.88	1088.93
575.23	1087.69
575.58	1086.92
575.93	1082.90
576.28	1086.85
576.64	1088.40
576.99	1088.37
577.34	1089.71
577.69	1092.42
578.04	1089.94
578.39	1093.50
578.74	1092.09
579.09	1087.90
579.44	1086.57
579.80	1088.54
580.15	1089.14
580.50	1089.92
580.85	1092.80
581.20	1093.22
581.55	1088.98
581.90	1086.71
582.25	1086.78
582.60	1085.21
582.95	1085.73
583.30	1086.01
583.65	1082.94
584.00	1082.80
584.35	1081.05
584.71	1081.63
585.06	1083.48
585.41	1087.55
585.76	1088.93
586.11	1090.43
586.46	1089.29
586.81	1091.09
587.16	1089.33
587.51	1087.86
587.86	1086.59
588.21	1088.93
588.56	1088.26
588.91	1088.72
589.26	1088.77
589.61	1091.18
589.96	1087.90
590.31	1086.55
590.66	1084.65
591.01	1087.51
591.36	1084.67
591.71	1083.22
592.06	1085.31
592.41	1088.02
592.76	1082.17
593.10	1083.36
593.45	1087.39
593.80	1085.14
594.15	1088.09
594.50	1093.24
594.85	1089.96
595.20	1086.29
595.55	1087.93
595.90	1083.79
596.25	1080.91
596.60	1081.84
596.95	1080.93
597.30	1081.84
597.64	1090.32
597.99	1089.14
598.34	1091.77
598.69	1092.63
599.04	1089.43
599.39	1083.81
599.74	1084.04
600.09	1085.68
600.44	1087.37
600.78	1087.81
601.13	1085.73
601.48	1085.61
601.83	1081.56
602.18	1080.46
602.53	1080.13
602.88	1079.36
603.22	1080.58
603.57	1082.22
603.92	1082.52
604.27	1083.76
604.62	1082.01
604.97	1088.93
605.31	1088.47
605.66	1087.79
606.01	1088.79
606.36	1088.77
606.71	1081.70
607.05	1083.81
607.40	1086.03
607.75	1086.10
608.10	1089.24
608.44	1091.56
608.79	1090.62
609.14	1086.87
609.49	1084.58
609.84	1083.18
610.18	1083.69
610.53	1084.23
610.88	1086.17
611.23	1085.03
611.57	1086.62
611.92	1084.37
612.27	1084.84
612.62	1086.41
612.96	1087.72
613.31	1086.97
613.66	1089.87
614.00	1090.88
614.35	1088.89
614.70	1093.59
615.05	1090.64
615.39	1088.84
615.74	1085.59
616.09	1086.03
616.43	1079.81
616.78	1079.29
617.13	1078.68
617.47	1079.36
617.82	1080.48
618.17	1083.86
618.51	1089.33
618.86	1086.83
619.21	1084.51
619.55	1083.67
619.90	1081.56
620.25	1079.01
620.59	1081.16
620.94	1084.39
621.29	1083.60
621.63	1082.57
621.98	1080.74
622.32	1077.16
622.67	1074.03
623.02	1076.20
623.36	1076.25
623.71	1076.30
624.05	1081.09
624.40	1082.50
624.75	1081.54
625.09	1083.18
625.44	1083.60
625.78	1078.89
626.13	1077.51
626.48	1079.55
626.82	1078.82
627.17	1078.21
627.51	1082.59
627.86	1083.01
628.20	1082.15
628.55	1081.14
628.89	1080.91
629.24	1079.43
629.58	1079.53
629.93	1077.89
630.28	1079.85
630.62	1081.66
630.97	1081.77
631.31	1086.38
631.66	1088.72
632.00	1086.83
632.35	1084.91
632.69	1087.09
633.04	1084.70
633.38	1082.71
633.73	1084.46
634.07	1086.41
634.42	1084.11
634.76	1086.13
635.11	1085.84
635.45	1085.56
635.79	1086.92
636.14	1089.22
636.48	1085.63
636.83	1085.28
637.17	1082.87
637.52	1077.33
637.86	1075.01
638.21	1074.10
638.55	1072.13
638.89	1075.22
639.24	1077.75
639.58	1077.98
639.93	1081.30
640.27	1084.91
640.61	1084.02
640.96	1085.77
641.30	1083.97
641.65	1081.94
641.99	1081.12
642.33	1082.40
642.68	1083.95
643.02	1084.07
643.37	1083.46
643.71	1084.65
644.05	1083.36
644.40	1083.06
644.74	1082.87
645.08	1083.69
645.43	1082.12
645.77	1082.45
646.11	1080.32
646.46	1082.90
646.80	1083.76
647.14	1081.94
647.49	1078.85
647.83	1077.75
648.17	1076.95
648.52	1075.17
648.86	1077.25
649.20	1078.21
649.55	1079.10
649.89	1078.64
650.23	1078.59
650.57	1075.76
650.92	1076.25
651.26	1074.68
651.60	1076.44
651.95	1079.64
652.29	1081.73
652.63	1084.98
652.97	1088.91
653.32	1086.78
653.66	1081.96
654.00	1083.81
654.34	1081.75
654.69	1080.23
655.03	1081.33
655.37	1084.18
655.71	1083.15
656.05	1085.35
656.40	1085.26
656.74	1086.31
657.08	1084.30
657.42	1082.40
657.76	1081.05
658.11	1078.82
658.45	1076.39
658.79	1077.11
659.13	1081.12
659.47	1079.99
659.82	1083.18
660.16	1085.35
660.50	1086.27
660.84	1083.71
661.18	1084.42
661.52	1083.08
661.87	1082.54
662.21	1083.39
662.55	1084.49
662.89	1083.41
663.23	1083.39
663.57	1082.94
663.91	1082.50
664.25	1080.53
664.60	1081.89
664.94	1080.34
665.28	1080.70
665.62	1078.64
665.96	1078.75
666.30	1078.73
666.64	1080.60
666.98	1079.60
667.32	1081.09
667.66	1082.57
668.01	1078.38
668.35	1078.59
668.69	1078.03
669.03	1077.00
669.37	1078.59
669.71	1083.55
670.05	1080.02
670.39	1081.82
670.73	1084.07
671.07	1080.39
671.41	1078.24
671.75	1080.27
672.09	1078.66
672.43	1078.17
672.77	1078.80
673.11	1081.19
673.45	1084.35
673.79	1083.97
674.13	1084.89
674.47	1083.13
674.81	1082.12
675.15	1079.55
675.49	1079.46
675.83	1077.44
676.17	1080.84
676.51	1079.81
676.85	1079.43
677.19	1079.95
677.53	1081.51
677.87	1080.23
678.21	1082.05
678.55	1083.06
678.89	1083.53
679.23	1082.52
679.57	1082.38
679.90	1080.06
680.24	1077.84
680.58	1075.52
680.92	1073.74
681.26	1075.48
681.60	1076.18
681.94	1078.80
682.28	1082.01
682.62	1084.98
682.96	1085.00
683.29	1084.07
683.63	1082.76
683.97	1082.47
684.31	1082.19
684.65	1080.06
684.99	1081.87
685.33	1080.58
685.67	1079.13
686.00	1079.20
686.34	1080.56
686.68	1080.46
687.02	1084.67
687.36	1085.56
687.70	1086.62
688.03	1085.45
688.37	1086.55
688.71	1084.16
689.05	1082.71
689.39	1077.25
689.72	1076.72
690.06	1073.02
690.40	1073.14
690.74	1075.38
691.08	1078.75
691.41	1079.22
691.75	1081.70
692.09	1081.63
692.43	1078.05
692.76	1076.34
693.10	1078.36
693.44	1078.05
693.78	1079.31
694.11	1081.00
694.45	1083.13
694.79	1079.41
695.13	1077.84
695.46	1078.28
695.80	1079.38
696.14	1077.23
696.48	1081.12
696.81	1079.38
697.15	1076.65
697.49	1077.68
697.82	1077.49
698.16	1074.49
698.50	1078.78
698.83	1080.30
699.17	1079.15
699.51	1081.05
699.84	1082.99
700.18	1081.33
700.52	1079.08
700.85	1079.13
701.19	1082.15
701.53	1079.95
701.86	1080.79
702.20	1082.45
702.54	1083.74
702.87	1081.89
703.21	1083.67
703.55	1086.24
703.88	1086.10
704.22	1083.06
704.55	1080.74
704.89	1079.83
705.23	1075.99
705.56	1077.07
705.90	1075.94
706.23	1077.79
706.57	1081.44
706.91	1084.02
707.24	1082.69
707.58	1082.69
707.91	1081.70
708.25	1078.10
708.58	1075.01
708.92	1071.87
709.26	1076.11
709.59	1078.78
709.93	1078.68
710.26	1078.28
710.60	1081.96
710.93	1079.62
711.27	1077.11
711.60	1078.07
711.94	1081.02
712.27	1080.11
712.61	1079.43
712.94	1080.30
713.28	1080.23
713.61	1076.13
713.95	1080.41
714.28	1079.85
714.62	1081.42
714.95	1080.81
715.29	1085.49
715.62	1079.46
715.96	1080.63
716.29	1076.74
716.63	1079.78
716.96	1080.20
717.29	1081.49
717.63	1079.22
717.96	1079.31
718.30	1078.10
718.63	1077.28
718.97	1078.87
719.30	1080.70
719.63	1084.16
719.97	1082.15
720.30	1078.66
720.64	1078.36
720.97	1081.09
721.30	1079.95
721.64	1084.30
721.97	1083.88
722.31	1084.02
722.64	1082.80
722.97	1080.95
723.31	1075.85
723.64	1079.13
723.97	1079.27
724.31	1079.69
724.64	1078.73
724.98	1078.71
725.31	1077.82
725.64	1076.72
725.98	1075.80
726.31	1078.21
726.64	1081.23
726.97	1080.09
727.31	1080.86
727.64	1079.60
727.97	1076.58
728.31	1075.41
728.64	1075.43
728.97	1074.73
729.31	1074.75
729.64	1076.93
729.97	1078.43
730.30	1078.92
730.64	1081.05
730.97	1081.94
731.30	1082.66
731.63	1079.74
731.97	1083.22
732.30	1081.98
732.63	1082.15
732.96	1081.63
733.30	1081.80
733.63	1079.24
733.96	1079.67
734.29	1076.55
734.63	1078.85
734.96	1081.89
735.29	1083.18
735.62	1080.84
735.95	1082.85
736.29	1078.71
736.62	1073.30
736.95	1070.28
737.28	1071.64
737.61	1070.54
737.94	1072.83
738.28	1074.91
738.61	1077.56
738.94	1076.53
739.27	1079.29
739.60	1079.97
739.93	1079.41
740.27	1079.36
740.60	1079.17
740.93	1078.28
741.26	1077.37
741.59	1077.21
741.92	1075.66
742.25	1077.30
742.58	1077.82
742.91	1074.91
743.25	1078.89
743.58	1081.66
743.91	1082.57
744.24	1083.71
744.57	1085.77
744.90	1082.01
745.23	1077.68
745.56	1076.58
745.89	1076.08
746.22	1075.08
746.55	1078.28
746.88	1079.08
747.21	1080.04
747.54	1077.00
747.87	1079.10
748.20	1079.03
748.53	1077.49
748.87	1081.56
749.20	1081.98
749.53	1080.34
749.86	1078.24
750.19	1082.08
750.52	1075.66
750.85	1076.90
751.18	1076.11
751.51	1076.15
751.84	1073.21
752.16	1073.95
752.49	1075.22
752.82	1079.43
753.15	1081.14
753.48	1079.83
753.81	1081.30
754.14	1080.84
754.47	1079.50
754.80	1077.16
755.13	1079.97
755.46	1081.42
755.79	1083.04
756.12	1083.13
756.45	1083.64
756.78	1084.65
757.11	1083.27
757.43	1080.88
757.76	1078.38
758.09	1078.57
758.42	1077.28
758.75	1074.98
759.08	1074.89
759.41	1076.67
759.74	1077.89
760.07	1076.60
760.39	1078.19
760.72	1079.67
761.05	1081.07
761.38	1081.16
761.71	1081.89
762.04	1081.73
762.36	1080.67
762.69	1078.68
763.02	1076.27
763.35	1076.37
763.68	1075.43
764.01	1074.19
764.33	1072.53
764.66	1074.03
764.99	1074.82
765.32	1076.76
765.65	1077.79
765.97	1079.10
766.30	1081.09
766.63	1080.79
766.96	1079.97
767.28	1077.00
767.61	1075.55
767.94	1073.60
768.27	1072.25
768.59	1070.14
768.92	1074.14
769.25	1075.66
769.58	1078.71
769.90	1079.95
770.23	1080.02
770.56	1080.23
770.89	1080.44
771.21	1076.93
771.54	1074.94
771.87	1078.00
772.19	1077.89
772.52	1080.56
772.85	1081.54
773.17	1084.39
773.50	1083.48
773.83	1084.25
774.15	1081.37
774.48	1081.51
774.81	1080.81
775.13	1082.50
775.46	1082.05
775.79	1081.63
776.11	1079.24
776.44	1080.44
776.77	1078.52
777.09	1079.27
777.42	1078.26
777.74	1079.95
778.07	1079.71
778.40	1079.41
778.72	1076.81
779.05	1077.35
779.37	1077.30
779.70	1078.17
780.03	1077.75
780.35	1077.77
780.68	1078.64
781.00	1078.71
781.33	1077.40
781.65	1079.97
781.98	1078.50
782.31	1077.49
782.63	1077.00
782.96	1075.50
783.28	1072.48
783.61	1075.03
783.93	1074.73
784.26	1075.15
784.58	1076.20
784.91	1078.31
785.23	1077.65
785.56	1080.32
785.88	1078.45
786.21	1077.00
786.53	1075.64
786.86	1075.24
787.18	1073.25
787.51	1073.91
787.83	1075.43
788.16	1072.32
788.48	1073.00
788.81	1075.55
789.13	1074.96
789.46	1074.68
789.78	1077.68
790.10	1075.34
790.43	1073.44
790.75	1075.62
791.08	1076.01
791.40	1074.07
791.73	1078.45
792.05	1079.74
792.37	1080.11
792.70	1081.68
793.02	1083.08
793.35	1082.08
793.67	1080.16
793.99	1079.90
794.32	1079.15
794.64	1078.87
794.96	1077.63
795.29	1078.10
795.61	1076.72
795.93	1075.99
796.26	1075.76
796.58	1077.98
796.91	1078.71
797.23	1077.82
797.55	1077.33
797.87	1075.08
798.20	1072.43
798.52	1071.33
798.84	1072.57
799.17	1071.10
799.49	1076.06
799.81	1079.08
800.14	1079.60
800.46	1078.80
800.78	1079.08
801.10	1076.18
801.43	1074.31
801.75	1075.10
802.07	1075.05
802.40	1075.90
802.72	1075.27
803.04	1074.14
803.36	1072.18
803.69	1075.05
804.01	1075.03
804.33	1078.07
804.65	1076.11
804.97	1077.56
805.30	1077.98
805.62	1077.37
805.94	1074.24
806.26	1075.78
806.58	1074.28
806.91	1072.01
807.23	1075.03
807.55	1077.14
807.87	1076.86
808.19	1077.65
808.52	1077.16
808.84	1075.34
809.16	1078.68
809.48	1077.47
809.80	1079.76
810.12	1079.41
810.44	1082.54
810.77	1080.25
811.09	1083.97
811.41	1080.23
811.73	1080.53
812.05	1079.46
812.37	1079.20
812.69	1078.68
813.01	1076.30
813.33	1077.21
813.66	1073.16
813.98	1075.31
814.30	1076.37
814.62	1076.44
814.94	1077.04
815.26	1078.92
815.58	1075.55
815.90	1074.68
816.22	1079.48
816.54	1078.36
816.86	1078.52
817.18	1078.24
817.50	1076.48
817.82	1077.40
818.14	1075.55
818.46	1076.44
818.78	1076.34
819.10	1074.31
819.42	1074.05
819.74	1076.62
820.06	1072.22
820.38	1072.15
820.70	1076.13
821.02	1075.92
821.34	1071.90
821.66	1072.64
821.98	1072.88
822.30	1072.46
822.62	1072.64
822.94	1076.65
823.26	1081.26
823.58	1080.93
823.90	1080.86
824.22	1081.96
824.54	1080.09
824.86	1075.62
825.18	1077.40
825.50	1076.81
825.81	1073.49
826.13	1073.58
826.45	1077.91
826.77	1078.10
827.09	1077.89
827.41	1079.13
827.73	1081.75
828.05	1076.97
828.36	1074.26
828.68	1076.30
829.00	1075.85
829.32	1073.79
829.64	1078.21
829.96	1079.13
830.28	1075.08
830.59	1071.68
830.91	1073.95
831.23	1071.33
831.55	1070.91
831.87	1072.81
832.19	1076.88
832.50	1074.66
832.82	1075.41
833.14	1078.52
833.46	1079.92
833.78	1078.07
834.09	1078.43
834.41	1079.43
834.73	1077.35
835.05	1075.41
835.36	1075.15
835.68	1073.00
836.00	1072.90
836.32	1074.49
836.63	1071.87
836.95	1073.72
837.27	1076.74
837.59	1076.39
837.90	1075.76
838.22	1078.87
838.54	1079.76
838.85	1081.68
839.17	1080.56
839.49	1076.20
839.80	1077.23
840.12	1075.94
840.44	1075.03
840.76	1077.51
841.07	1080.18
841.39	1076.01
841.71	1074.91
842.02	1072.25
842.34	1070.68
842.65	1071.47
842.97	1074.61
843.29	1077.49
843.60	1079.03
843.92	1081.40
844.24	1082.76
844.55	1082.57
844.87	1080.81
845.18	1079.76
845.50	1075.78
845.82	1070.09
846.13	1068.50
846.45	1067.80
846.76	1070.49
847.08	1074.70
847.40	1080.72
847.71	1080.98
848.03	1082.50
848.34	1080.51
848.66	1077.72
848.97	1078.47
849.29	1081.09
849.60	1079.85
849.92	1079.24
850.24	1078.57
850.55	1076.67
850.87	1074.91
851.18	1075.17
851.50	1075.52
851.81	1077.23
852.13	1077.54
852.44	1080.95
852.76	1080.32
853.07	1079.67
853.39	1079.31
853.70	1075.36
854.01	1073.79
854.33	1074.94
854.64	1077.96
854.96	1077.89
855.27	1083.74
855.59	1084.00
855.90	1085.21
856.22	1082.36
856.53	1083.41
856.84	1080.91
857.16	1080.41
857.47	1079.90
857.79	1082.54
858.10	1082.08
858.41	1081.47
858.73	1081.33
859.04	1080.56
859.36	1079.85
859.67	1079.85
859.98	1079.64
860.30	1076.15
860.61	1077.04
860.92	1075.15
861.24	1073.49
861.55	1072.34
861.87	1075.36
862.18	1077.68
862.49	1081.42
862.81	1080.63
863.12	1085.33
863.43	1087.09
863.74	1084.39
864.06	1081.80
864.37	1084.81
864.68	1083.29
865.00	1083.39
865.31	1083.71
865.62	1084.67
865.94	1079.03
866.25	1076.69
866.56	1076.58
866.87	1073.42
867.19	1070.33
867.50	1072.15
867.81	1072.81
868.12	1073.23
868.44	1076.18
868.75	1076.88
869.06	1080.02
869.37	1077.72
869.68	1076.01
870.00	1076.76
870.31	1075.29
870.62	1073.42
870.93	1076.20
871.24	1074.96
871.56	1073.25
871.87	1074.14
872.18	1076.74
872.49	1076.97
872.80	1077.02
873.12	1077.77
873.43	1078.28
873.74	1078.28
874.05	1078.68
874.36	1079.06
874.67	1079.27
874.98	1078.47
875.29	1078.12
875.61	1076.79
875.92	1076.32
876.23	1074.77
876.54	1078.43
876.85	1074.66
877.16	1074.73
877.47	1074.47
877.78	1075.15
878.09	1073.51
878.40	1079.29
878.72	1082.01
879.03	1080.70
879.34	1080.74
879.65	1079.97
879.96	1076.67
880.27	1075.83
880.58	1077.16
880.89	1079.85
881.20	1079.62
881.51	1078.24
881.82	1075.48
882.13	1074.00
882.44	1071.87
882.75	1072.57
883.06	1075.24
883.37	1077.09
883.68	1082.08
883.99	1080.56
884.30	1079.74
884.61	1076.72
884.92	1077.91
885.23	1073.21
885.54	1073.46
885.85	1074.24
886.16	1074.84
886.47	1073.67
886.78	1077.02
887.08	1076.93
887.39	1080.72
887.70	1083.11
888.01	1081.80
888.32	1081.02
888.63	1081.58
888.94	1079.03
889.25	1074.84
889.56	1077.44
889.87	1076.39
890.17	1079.78
890.48	1080.95
890.79	1085.24
891.10	1083.11
891.41	1084.98
891.72	1080.23
892.03	1078.80
892.34	1076.20
892.64	1074.94
892.95	1075.24
893.26	1078.03
893.57	1076.67
893.88	1076.51
894.18	1080.74
894.49	1080.53
894.80	1080.72
895.11	1079.90
895.42	1081.44
895.72	1078.68
896.03	1076.25
896.34	1073.91
896.65	1075.38
896.96	1076.58
897.26	1078.75
897.57	1080.53
897.88	1082.87
898.19	1087.51
898.49	1088.28
898.80	1088.30
899.11	1088.44
899.41	1084.42
899.72	1077.61
900.03	1072.11
900.34	1067.19
900.64	1065.72
900.95	1067.71
901.26	1068.99
901.56	1069.86
901.87	1070.68
902.18	1070.35
902.48	1071.97
902.79	1072.90
903.10	1076.27
903.40	1076.15
903.71	1073.56
904.02	1074.63
904.32	1073.63
904.63	1071.87
904.94	1073.70
905.24	1075.10
905.55	1072.64
905.85	1073.70
906.16	1075.73
906.47	1073.39
906.77	1075.29
907.08	1077.51
907.38	1077.28
907.69	1072.90
908.00	1074.52
908.30	1073.44
908.61	1070.98
908.91	1073.11
909.22	1077.28
909.52	1077.18
909.83	1078.59
910.14	1082.24
910.44	1079.78
910.75	1077.35
911.05	1078.57
911.36	1077.02
911.66	1075.01
911.97	1075.41
912.27	1075.03
912.58	1072.46
912.88	1073.79
913.19	1070.84
913.49	1071.57
913.80	1074.75
914.10	1077.21
914.41	1075.62
914.71	1081.16
915.01	1079.74
915.32	1080.51
915.62	1080.27
915.93	1082.83
916.23	1080.25
916.54	1080.98
916.84	1077.72
917.15	1078.38
917.45	1075.64
917.75	1074.82
918.06	1074.98
918.36	1079.15
918.67	1077.14
918.97	1076.69
919.27	1076.11
919.58	1076.55
919.88	1073.23
920.18	1075.08
920.49	1080.11
920.79	1078.87
921.10	1074.14
921.40	1073.04
921.70	1072.04
922.01	1071.47
922.31	1073.49
922.61	1078.75
922.92	1081.66
923.22	1080.81
923.52	1079.01
923.82	1076.44
924.13	1074.68
924.43	1074.19
924.73	1074.87
925.04	1072.25
925.34	1074.80
925.64	1074.31
925.94	1073.14
926.25	1074.21
926.55	1078.28
926.85	1075.97
927.15	1076.55
927.46	1077.58
927.76	1078.31
928.06	1076.32
928.36	1081.26
928.67	1081.77
928.97	1078.96
929.27	1077.40
929.57	1074.80
929.87	1070.47
930.18	1069.65
930.48	1071.94
930.78	1072.57
931.08	1075.94
931.38	1078.31
931.69	1076.08
931.99	1074.87
932.29	1076.20
932.59	1076.11
932.89	1074.80
933.19	1078.40
933.49	1078.52
933.80	1075.13
934.10	1076.34
934.40	1077.00
934.70	1075.97
935.00	1077.56
935.30	1080.48
935.60	1079.99
935.90	1079.78
936.20	1079.62
936.50	1080.06
936.81	1079.92
937.11	1080.41
937.41	1076.76
937.71	1078.19
938.01	1073.93
938.31	1072.15
938.61	1070.54
938.91	1072.36
939.21	1070.05
939.51	1074.31
939.81	1076.01
940.11	1074.91
940.41	1075.64
940.71	1076.01
941.01	1072.83
941.31	1069.30
941.61	1071.19
941.91	1071.59
942.21	1070.44
942.51	1071.92
942.81	1075.34
943.11	1072.25
943.41	1073.42
943.71	1074.77
944.01	1076.32
944.31	1077.51
944.61	1079.64
944.90	1079.60
945.20	1078.33
945.50	1078.66
945.80	1074.70
946.10	1074.84
946.40	1073.23
946.70	1073.44
947.00	1073.07
947.30	1076.76
947.60	1077.54
947.89	1082.26
948.19	1082.17
948.49	1080.39
948.79	1078.94
949.09	1076.86
949.39	1073.21
949.69	1074.00
949.98	1075.92
950.28	1077.70
950.58	1079.53
950.88	1077.91
951.18	1079.97
951.48	1079.83
951.77	1079.92
952.07	1077.44
952.37	1077.25
952.67	1074.49
952.97	1071.78
953.26	1069.51
953.56	1070.21
953.86	1071.24
954.16	1072.36
954.45	1076.32
954.75	1074.45
955.05	1076.37
955.35	1074.96
955.64	1072.32
955.94	1071.01
956.24	1073.09
956.54	1072.22
956.83	1072.32
957.13	1074.89
957.43	1072.25
957.72	1075.69
958.02	1075.13
958.32	1078.12
958.61	1080.37
958.91	1086.01
959.21	1082.76
959.50	1081.56
959.80	1082.08
960.10	1079.50
960.39	1072.69
960.69	1073.00
960.99	1074.89
961.28	1073.09
961.58	1075.62
961.87	1075.50
962.17	1075.55
962.47	1076.60
962.76	1075.62
963.06	1072.01
963.36	1074.21
963.65	1074.75
963.95	1073.42
964.24	1073.25
964.54	1073.65
964.83	1076.44
965.13	1075.59
965.42	1076.53
965.72	1078.68
966.02	1079.50
966.31	1077.82
966.61	1078.05
966.90	1077.14
967.20	1077.65
967.49	1076.67
967.79	1074.66
968.08	1073.56
968.38	1072.53
968.67	1071.87
968.97	1073.02
969.26	1073.25
969.56	1077.49
969.85	1078.24
970.15	1076.83
970.44	1076.60
970.74	1079.03
971.03	1075.36
971.32	1078.38
971.62	1081.47
971.91	1083.79
972.21	1081.84
972.50	1084.09
972.80	1085.40
973.09	1084.09
973.38	1083.39
973.68	1085.19
973.97	1079.46
974.27	1077.00
974.56	1077.82
974.85	1080.56
975.15	1077.56
975.44	1080.46
975.73	1081.12
976.03	1080.88
976.32	1077.84
976.61	1082.33
976.91	1083.79
977.20	1080.20
977.49	1078.26
977.79	1077.79
978.08	1075.57
978.37	1077.07
978.67	1080.02
978.96	1081.26
979.25	1083.50
979.55	1084.25
979.84	1080.46
980.13	1080.48
980.42	1078.28
980.72	1076.67
981.01	1074.03
981.30	1075.62
981.59	1074.87
981.89	1075.31
982.18	1073.04
982.47	1075.73
982.76	1074.07
983.06	1074.70
983.35	1075.57
983.64	1076.11
983.93	1073.18
984.22	1071.90
984.52	1069.58
984.81	1067.73
985.10	1070.72
985.39	1078.00
985.68	1082.83
985.97	1082.50
986.27	1084.77
986.56	1084.74
986.85	1078.31
987.14	1076.04
987.43	1076.51
987.72	1078.07
988.01	1077.49
988.31	1079.57
988.60	1081.14
988.89	1080.46
989.18	1077.49
989.47	1076.15
989.76	1078.17
990.05	1075.80
990.34	1076.58
990.63	1077.75
990.92	1080.25
991.21	1077.65
991.51	1077.72
991.80	1078.26
992.09	1078.82
992.38	1074.77
992.67	1074.35
992.96	1076.53
993.25	1076.44
993.54	1074.70
993.83	1076.15
994.12	1076.01
994.41	1075.78
994.70	1072.97
994.99	1074.89
995.28	1073.04
995.57	1071.73
995.86	1070.72
996.15	1073.91
996.44	1071.92
996.73	1076.74
997.02	1077.28
997.31	1075.45
997.59	1074.17
997.88	1075.85
998.17	1072.41
998.46	1073.86
998.75	1075.76
999.04	1076.01
999.33	1075.57
999.62	1075.97
999.91	1075.45
1000.20	1077.35
1000.49	1081.28
1000.77	1079.08
1001.06	1076.11
1001.35	1077.61
1001.64	1071.80
1001.93	1067.54
1002.22	1069.02
1002.51	1071.38
1002.79	1069.02
1003.08	1073.51
1003.37	1072.74
1003.66	1073.44
1003.95	1072.43
1004.23	1070.47
1004.52	1070.02
1004.81	1070.16
1005.10	1069.04
1005.39	1071.90
1005.67	1076.88
1005.96	1074.84
1006.25	1078.99
1006.54	1079.50
1006.83	1076.72
1007.11	1072.92
1007.40	1073.35
1007.69	1072.08
1007.97	1074.10
1008.26	1078.61
1008.55	1082.78
1008.84	1084.81
1009.12	1084.21
1009.41	1081.54
1009.70	1082.12
1009.98	1076.83
1010.27	1077.58
1010.56	1077.37
1010.85	1079.13
1011.13	1074.17
1011.42	1076.48
1011.71	1077.25
1011.99	1076.58
1012.28	1076.34
1012.56	1076.58
1012.85	1076.86
1013.14	1073.81
1013.42	1072.15
1013.71	1072.64
1014.00	1071.92
1014.28	1068.29
1014.57	1068.38
1014.85	1069.79
1015.14	1067.35
1015.43	1070.72
1015.71	1076.11
1016.00	1075.55
1016.28	1077.84
1016.57	1079.10
1016.85	1079.67
1017.14	1078.05
1017.43	1079.71
1017.71	1075.99
1018.00	1078.03
1018.28	1076.60
1018.57	1078.26
1018.85	1077.23
1019.14	1083.76
1019.42	1081.96
1019.71	1084.18
1019.99	1081.47
1020.28	1084.09
1020.56	1080.23
1020.85	1082.47
1021.13	1080.23
1021.42	1081.37
1021.70	1078.73
1021.99	1075.10
1022.27	1070.47
1022.55	1061.43
1022.84	1063.54
>>>>>End Processed Spectral Data<<<<<
