SpectraSuite Data File
++++++++++++++++++++++++++++++++++++
Date: Mon Aug 26 10:22:21 PDT 2019
User: corrico
Dark Spectrum Present: No
Reference Spectrum Present: No
Number of Sampled Component Spectra: 1
Spectrometers: USB2+H06089
Integration Time (usec): 2000 (USB2+H06089)
Spectra Averaged: 20 (USB2+H06089)
Boxcar Smoothing: 2 (USB2+H06089)
Correct for Electrical Dark: No (USB2+H06089)
Strobe/Lamp Enabled: No (USB2+H06089)
Correct for Detector Non-linearity: No (USB2+H06089)
Correct for Stray Light: No (USB2+H06089)
Number of Pixels in Processed Spectrum: 2048
>>>>>Begin Processed Spectral Data<<<<<
339.70	1035.69
340.07	1035.69
340.45	996.79
340.82	973.36
341.19	949.49
341.57	924.68
341.94	917.12
342.31	909.46
342.69	902.84
343.06	900.87
343.43	898.95
343.81	898.30
344.18	900.80
344.55	907.17
344.93	909.39
345.30	916.90
345.67	923.46
346.04	931.35
346.42	936.38
346.79	944.57
347.16	947.52
347.54	956.69
347.91	964.00
348.28	979.72
348.65	991.38
349.03	1004.25
349.40	1013.73
349.77	1022.49
350.14	1025.76
350.52	1030.44
350.89	1037.44
351.26	1044.46
351.63	1051.63
352.01	1058.69
352.38	1066.00
352.75	1070.65
353.12	1071.66
353.50	1074.75
353.87	1076.08
354.24	1075.45
354.61	1074.82
354.98	1078.52
355.36	1080.70
355.73	1080.60
356.10	1082.50
356.47	1084.42
356.84	1084.11
357.22	1083.67
357.59	1082.59
357.96	1085.03
358.33	1085.17
358.70	1085.61
359.08	1085.33
359.45	1088.30
359.82	1086.90
360.19	1089.52
360.56	1086.76
360.94	1084.89
361.31	1081.54
361.68	1079.78
362.05	1076.81
362.42	1078.64
362.79	1078.50
363.16	1077.82
363.54	1078.36
363.91	1077.54
364.28	1077.11
364.65	1073.98
365.02	1076.30
365.39	1076.55
365.76	1077.93
366.14	1077.54
366.51	1081.96
366.88	1081.58
367.25	1078.47
367.62	1076.20
367.99	1074.68
368.36	1073.00
368.73	1072.50
369.10	1073.91
369.48	1073.72
369.85	1074.91
370.22	1073.16
370.59	1072.39
370.96	1074.28
371.33	1075.13
371.70	1074.00
372.07	1075.01
372.44	1074.47
372.81	1074.66
373.18	1075.92
373.55	1076.41
373.93	1075.85
374.30	1078.57
374.67	1074.47
375.04	1075.01
375.41	1077.33
375.78	1081.37
376.15	1081.21
376.52	1082.94
376.89	1082.57
377.26	1082.38
377.63	1079.27
378.00	1077.77
378.37	1078.94
378.74	1080.79
379.11	1079.48
379.48	1080.09
379.85	1080.23
380.22	1078.94
380.59	1074.54
380.96	1073.77
381.33	1075.43
381.70	1075.64
382.07	1077.04
382.44	1077.96
382.81	1082.26
383.18	1081.87
383.55	1083.57
383.92	1084.16
384.29	1085.59
384.66	1085.68
385.03	1085.19
385.40	1085.73
385.77	1083.27
386.14	1084.70
386.51	1081.33
386.88	1084.53
387.25	1082.94
387.62	1088.28
387.99	1089.45
388.36	1093.80
388.73	1091.16
389.10	1095.25
389.46	1092.96
389.83	1092.00
390.20	1090.88
390.57	1092.40
390.94	1091.13
391.31	1089.54
391.68	1089.36
392.05	1088.33
392.42	1086.43
392.79	1086.29
393.16	1086.64
393.53	1086.71
393.89	1087.65
394.26	1090.57
394.63	1090.15
395.00	1089.94
395.37	1089.00
395.74	1088.16
396.11	1086.15
396.48	1084.23
396.84	1086.31
397.21	1087.83
397.58	1088.65
397.95	1089.78
398.32	1088.58
398.69	1084.89
399.06	1083.57
399.42	1082.71
399.79	1083.69
400.16	1086.52
400.53	1089.29
400.90	1088.56
401.27	1086.38
401.64	1084.81
402.00	1086.50
402.37	1087.53
402.74	1086.71
403.11	1091.16
403.48	1094.41
403.84	1091.53
404.21	1090.17
404.58	1091.09
404.95	1089.99
405.32	1086.94
405.68	1091.58
406.05	1095.02
406.42	1098.58
406.79	1097.27
407.16	1098.60
407.52	1095.86
407.89	1094.72
408.26	1092.16
408.63	1093.05
408.99	1091.74
409.36	1089.71
409.73	1091.65
410.10	1094.34
410.47	1093.90
410.83	1097.06
411.20	1099.77
411.57	1101.41
411.94	1100.71
412.30	1100.43
412.67	1099.63
413.04	1098.09
413.40	1093.43
413.77	1093.55
414.14	1095.14
414.51	1094.60
414.87	1096.73
415.24	1099.02
415.61	1101.08
415.97	1098.53
416.34	1098.44
416.71	1102.23
417.08	1106.96
417.44	1106.30
417.81	1109.91
418.18	1110.89
418.54	1108.76
418.91	1107.54
419.28	1108.83
419.64	1110.26
420.01	1113.98
420.38	1113.88
420.74	1112.43
421.11	1112.39
421.48	1114.56
421.84	1114.73
422.21	1118.52
422.58	1122.03
422.94	1125.82
423.31	1124.42
423.68	1125.82
424.04	1128.84
424.41	1130.57
424.77	1133.71
425.14	1140.40
425.51	1143.09
425.87	1146.58
426.24	1153.02
426.61	1160.13
426.97	1163.46
427.34	1169.75
427.70	1175.32
428.07	1177.08
428.44	1181.41
428.80	1193.42
429.17	1201.94
429.53	1213.43
429.90	1226.44
430.27	1233.60
430.63	1242.73
431.00	1254.90
431.36	1266.72
431.73	1278.49
432.09	1294.34
432.46	1307.40
432.83	1322.52
433.19	1336.68
433.56	1358.38
433.92	1378.18
434.29	1399.83
434.65	1421.74
435.02	1443.46
435.38	1466.21
435.75	1494.83
436.11	1524.81
436.48	1561.02
436.84	1597.11
437.21	1634.12
437.57	1670.35
437.94	1712.41
438.30	1757.93
438.67	1804.16
439.03	1853.38
439.40	1910.13
439.76	1963.87
440.13	2020.05
440.49	2091.46
440.86	2157.95
441.22	2227.98
441.59	2303.20
441.95	2386.08
442.32	2468.19
442.68	2563.28
443.05	2658.31
443.41	2763.35
443.78	2863.60
444.14	2972.55
444.51	3085.18
444.87	3227.04
445.24	3368.97
445.60	3524.24
445.96	3677.85
446.33	3853.67
446.69	4015.14
447.06	4191.52
447.42	4375.84
447.79	4572.12
448.15	4797.47
448.51	5038.33
448.88	5295.09
449.24	5542.51
449.61	5826.90
449.97	6095.04
450.33	6373.09
450.70	6644.87
451.06	6974.07
451.43	7278.53
451.79	7653.74
452.15	8059.70
452.52	8520.18
452.88	8991.21
453.24	9547.07
453.61	10127.80
453.97	10701.96
454.34	11253.53
454.70	11916.93
455.06	12550.44
455.43	13193.67
455.79	13784.82
456.15	14512.63
456.52	15159.53
456.88	15944.92
457.24	16669.20
457.61	17536.84
457.97	18330.16
458.33	19122.18
458.70	19891.04
459.06	20668.05
459.42	21511.44
459.79	22273.59
460.15	23197.59
460.51	24076.81
460.88	25008.86
461.24	25829.68
461.60	26808.85
461.96	27707.54
462.33	28577.64
462.69	29385.43
463.05	30249.32
463.42	30995.01
463.78	31653.45
464.14	32179.58
464.50	32760.55
464.87	33214.17
465.23	33540.98
465.59	33856.36
465.95	34185.37
466.32	34482.60
466.68	34729.64
467.04	34872.88
467.40	35025.51
467.77	35170.74
468.13	35138.14
468.49	35050.79
468.85	35000.51
469.22	34838.22
469.58	34488.66
469.94	34226.17
470.30	33911.39
470.66	33464.42
471.03	32875.49
471.39	32496.47
471.75	31867.35
472.11	31266.65
472.47	30939.45
472.84	30634.90
473.20	30134.44
473.56	29864.98
473.92	29420.04
474.28	28883.99
474.65	28379.30
475.01	27901.32
475.37	27320.89
475.73	26883.65
476.09	26356.14
476.45	25822.22
476.81	25302.60
477.18	24773.80
477.54	24308.64
477.90	23953.53
478.26	23551.36
478.62	23204.26
478.98	22897.79
479.34	22571.03
479.71	22132.34
480.07	21758.16
480.43	21379.06
480.79	20974.38
481.15	20604.04
481.51	20279.36
481.87	20018.63
482.23	19741.58
482.59	19501.72
482.96	19227.92
483.32	18941.32
483.68	18570.21
484.04	18229.19
484.40	17852.79
484.76	17471.42
485.12	17107.44
485.48	16779.79
485.84	16418.48
486.20	16056.75
486.56	15691.40
486.92	15376.10
487.28	15028.28
487.64	14677.64
488.00	14361.67
488.37	14033.55
488.73	13665.48
489.09	13309.60
489.45	12990.42
489.81	12661.39
490.17	12361.73
490.53	12079.15
490.89	11766.20
491.25	11451.75
491.61	11140.81
491.97	10814.61
492.33	10476.57
492.69	10182.50
493.05	9883.31
493.41	9592.22
493.77	9318.49
494.13	9067.98
494.49	8820.73
494.85	8571.02
495.21	8330.48
495.57	8110.68
495.93	7888.99
496.29	7672.21
496.64	7488.92
497.00	7297.93
497.36	7097.70
497.72	6905.03
498.08	6716.75
498.44	6529.91
498.80	6353.15
499.16	6190.90
499.52	6034.49
499.88	5904.73
500.24	5776.25
500.60	5651.90
500.96	5528.51
501.32	5406.80
501.68	5282.28
502.03	5148.62
502.39	5024.90
502.75	4888.35
503.11	4761.80
503.47	4637.02
503.83	4517.51
504.19	4394.31
504.55	4293.39
504.91	4195.81
505.26	4099.99
505.62	4020.13
505.98	3935.42
506.34	3839.23
506.70	3744.53
507.06	3660.90
507.42	3569.11
507.78	3485.48
508.13	3414.40
508.49	3341.42
508.85	3265.96
509.21	3194.25
509.57	3121.97
509.93	3053.14
510.28	2988.70
510.64	2923.10
511.00	2855.50
511.36	2799.84
511.72	2741.91
512.07	2693.28
512.43	2641.79
512.79	2592.45
513.15	2542.43
513.51	2491.45
513.86	2445.56
514.22	2400.78
514.58	2360.22
514.94	2320.62
515.30	2288.37
515.65	2251.01
516.01	2218.52
516.37	2188.89
516.73	2155.56
517.08	2126.59
517.44	2093.68
517.80	2061.82
518.16	2035.45
518.51	2011.74
518.87	1979.95
519.23	1950.86
519.59	1927.15
519.94	1897.43
520.30	1873.83
520.66	1850.80
521.01	1827.44
521.37	1801.49
521.73	1780.47
522.09	1756.76
522.44	1737.85
522.80	1719.26
523.16	1703.11
523.51	1681.89
523.87	1662.51
524.23	1641.30
524.58	1623.54
524.94	1607.29
525.30	1592.92
525.65	1576.70
526.01	1557.88
526.37	1538.79
526.72	1523.50
527.08	1509.08
527.44	1494.03
527.79	1485.40
528.15	1477.56
528.51	1460.66
528.86	1452.98
529.22	1443.27
529.58	1429.65
529.93	1420.71
530.29	1415.28
530.65	1400.04
531.00	1390.37
531.36	1381.62
531.71	1372.05
532.07	1362.26
532.43	1353.81
532.78	1345.39
533.14	1337.90
533.49	1326.92
533.85	1318.73
534.21	1312.92
534.56	1304.54
534.92	1298.83
535.27	1297.78
535.63	1293.92
535.98	1284.74
536.34	1278.59
536.69	1274.70
537.05	1264.36
537.41	1258.44
537.76	1253.38
538.12	1248.72
538.47	1244.74
538.83	1242.03
539.18	1235.94
539.54	1232.88
539.89	1232.99
540.25	1226.56
540.60	1222.56
540.96	1219.21
541.31	1216.33
541.67	1209.38
542.02	1207.37
542.38	1204.44
542.73	1202.43
543.09	1199.88
543.44	1197.65
543.80	1193.98
544.15	1188.50
544.51	1186.49
544.86	1184.94
545.22	1183.14
545.57	1182.04
545.93	1182.98
546.28	1181.92
546.64	1178.27
546.99	1173.22
547.35	1169.73
547.70	1165.56
548.05	1160.77
548.41	1159.10
548.76	1160.41
549.12	1158.33
549.47	1157.93
549.83	1156.44
550.18	1155.45
550.53	1152.43
550.89	1151.24
551.24	1150.70
551.60	1144.85
551.95	1139.58
552.30	1137.45
552.66	1136.19
553.01	1130.69
553.37	1131.41
553.72	1134.93
554.07	1137.71
554.43	1135.25
554.78	1133.57
555.13	1132.66
555.49	1131.23
555.84	1125.26
556.19	1120.60
556.55	1122.38
556.90	1124.65
557.26	1121.42
557.61	1124.07
557.96	1126.62
558.32	1125.03
558.67	1124.00
559.02	1122.75
559.37	1116.67
559.73	1116.22
560.08	1115.87
560.43	1113.35
560.79	1113.91
561.14	1116.48
561.49	1115.57
561.85	1116.25
562.20	1114.14
562.55	1113.53
562.90	1115.24
563.26	1115.24
563.61	1114.42
563.96	1113.14
564.32	1112.11
564.67	1109.37
565.02	1107.71
565.37	1104.94
565.73	1105.62
566.08	1104.52
566.43	1102.51
566.78	1101.90
567.14	1102.04
567.49	1101.88
567.84	1103.87
568.19	1104.87
568.54	1104.43
568.90	1104.59
569.25	1103.52
569.60	1102.56
569.95	1101.78
570.31	1102.81
570.66	1100.96
571.01	1100.73
571.36	1097.08
571.71	1096.33
572.06	1090.78
572.42	1090.95
572.77	1089.26
573.12	1091.04
573.47	1089.40
573.82	1094.36
574.18	1096.17
574.53	1099.30
574.88	1097.62
575.23	1100.64
575.58	1099.33
575.93	1097.10
576.28	1095.23
576.64	1098.23
576.99	1093.94
577.34	1092.87
577.69	1092.45
578.04	1096.45
578.39	1097.03
578.74	1100.68
579.09	1100.64
579.44	1098.32
579.80	1095.37
580.15	1092.07
580.50	1090.55
580.85	1090.74
581.20	1091.18
581.55	1087.20
581.90	1086.78
582.25	1087.37
582.60	1088.44
582.95	1088.40
583.30	1089.17
583.65	1086.17
584.00	1083.25
584.35	1081.66
584.71	1081.19
585.06	1082.29
585.41	1084.16
585.76	1084.49
586.11	1086.31
586.46	1089.50
586.81	1090.71
587.16	1090.41
587.51	1091.23
587.86	1091.81
588.21	1089.40
588.56	1087.90
588.91	1089.00
589.26	1089.38
589.61	1086.48
589.96	1086.76
590.31	1088.44
590.66	1088.65
591.01	1089.68
591.36	1090.48
591.71	1088.47
592.06	1091.11
592.41	1090.99
592.76	1088.86
593.10	1087.44
593.45	1091.65
593.80	1088.30
594.15	1087.65
594.50	1089.66
594.85	1087.69
595.20	1085.38
595.55	1082.78
595.90	1085.33
596.25	1082.15
596.60	1081.68
596.95	1082.08
597.30	1081.54
597.64	1086.48
597.99	1090.48
598.34	1093.87
598.69	1093.31
599.04	1095.82
599.39	1085.59
599.74	1080.37
600.09	1079.95
600.44	1079.76
600.78	1077.68
601.13	1081.02
601.48	1083.08
601.83	1085.00
602.18	1087.93
602.53	1090.62
602.88	1090.69
603.22	1089.19
603.57	1084.65
603.92	1082.45
604.27	1083.39
604.62	1082.17
604.97	1083.86
605.31	1085.28
605.66	1084.63
606.01	1083.95
606.36	1082.97
606.71	1082.87
607.05	1084.23
607.40	1083.43
607.75	1083.62
608.10	1086.31
608.44	1088.68
608.79	1087.93
609.14	1086.76
609.49	1079.62
609.84	1076.48
610.18	1074.98
610.53	1076.30
610.88	1078.54
611.23	1084.11
611.57	1085.38
611.92	1084.58
612.27	1084.53
612.62	1083.90
612.96	1084.70
613.31	1086.01
613.66	1086.13
614.00	1085.21
614.35	1089.52
614.70	1090.76
615.05	1088.23
615.39	1090.20
615.74	1090.15
616.09	1085.91
616.43	1082.57
616.78	1082.15
617.13	1079.31
617.47	1078.94
617.82	1079.34
618.17	1081.02
618.51	1083.71
618.86	1085.19
619.21	1086.10
619.55	1086.43
619.90	1084.51
620.25	1082.78
620.59	1082.87
620.94	1081.19
621.29	1080.77
621.63	1079.76
621.98	1081.56
622.32	1080.58
622.67	1079.76
623.02	1082.92
623.36	1087.09
623.71	1089.05
624.05	1090.27
624.40	1092.96
624.75	1089.71
625.09	1090.15
625.44	1086.20
625.78	1088.33
626.13	1087.18
626.48	1085.45
626.82	1083.41
627.17	1083.74
627.51	1077.89
627.86	1078.99
628.20	1081.91
628.55	1081.28
628.89	1082.08
629.24	1084.74
629.58	1084.67
629.93	1085.19
630.28	1082.97
630.62	1081.87
630.97	1084.67
631.31	1082.40
631.66	1079.43
632.00	1081.21
632.35	1083.95
632.69	1083.62
633.04	1085.00
633.38	1086.45
633.73	1085.75
634.07	1086.20
634.42	1084.72
634.76	1083.88
635.11	1084.35
635.45	1089.00
635.79	1086.22
636.14	1084.30
636.48	1084.84
636.83	1085.17
637.17	1081.21
637.52	1083.79
637.86	1085.91
638.21	1088.65
638.55	1086.06
638.89	1085.68
639.24	1086.29
639.58	1085.56
639.93	1082.76
640.27	1083.27
640.61	1086.27
640.96	1083.74
641.30	1081.19
641.65	1080.79
641.99	1081.49
642.33	1078.43
642.68	1077.37
643.02	1079.97
643.37	1078.59
643.71	1078.96
644.05	1081.47
644.40	1084.35
644.74	1083.25
645.08	1082.69
645.43	1082.24
645.77	1081.63
646.11	1078.21
646.46	1076.72
646.80	1078.12
647.14	1081.91
647.49	1080.81
647.83	1080.98
648.17	1082.50
648.52	1083.20
648.86	1080.02
649.20	1080.67
649.55	1082.57
649.89	1083.15
650.23	1084.74
650.57	1085.45
650.92	1086.66
651.26	1084.96
651.60	1083.15
651.95	1081.28
652.29	1080.86
652.63	1078.50
652.97	1079.01
653.32	1080.70
653.66	1082.61
654.00	1083.55
654.34	1084.70
654.69	1084.28
655.03	1084.91
655.37	1082.50
655.71	1079.46
656.05	1079.24
656.40	1079.22
656.74	1080.60
657.08	1080.46
657.42	1078.26
657.76	1078.78
658.11	1079.53
658.45	1078.38
658.79	1079.43
659.13	1082.29
659.47	1081.02
659.82	1082.12
660.16	1079.85
660.50	1080.30
660.84	1078.66
661.18	1080.13
661.52	1078.94
661.87	1083.06
662.21	1082.45
662.55	1084.46
662.89	1081.89
663.23	1084.32
663.57	1081.89
663.91	1083.18
664.25	1084.11
664.60	1086.92
664.94	1083.46
665.28	1085.21
665.62	1082.71
665.96	1081.40
666.30	1080.32
666.64	1080.30
666.98	1077.14
667.32	1078.45
667.66	1078.19
668.01	1077.40
668.35	1079.06
668.69	1082.94
669.03	1084.42
669.37	1081.56
669.71	1081.77
670.05	1080.23
670.39	1078.38
670.73	1076.79
671.07	1080.04
671.41	1080.70
671.75	1080.51
672.09	1078.92
672.43	1081.80
672.77	1083.60
673.11	1083.01
673.45	1083.50
673.79	1085.66
674.13	1082.99
674.47	1081.56
674.81	1081.19
675.15	1081.30
675.49	1078.05
675.83	1078.05
676.17	1080.67
676.51	1081.80
676.85	1083.53
677.19	1088.58
677.53	1089.59
677.87	1087.44
678.21	1086.52
678.55	1081.19
678.89	1076.41
679.23	1076.04
679.57	1077.21
679.90	1074.68
680.24	1079.43
680.58	1080.88
680.92	1080.30
681.26	1078.82
681.60	1081.40
681.94	1082.94
682.28	1083.88
682.62	1084.93
682.96	1085.77
683.29	1085.42
683.63	1080.34
683.97	1079.20
684.31	1079.62
684.65	1076.62
684.99	1076.81
685.33	1078.03
685.67	1077.35
686.00	1076.86
686.34	1076.90
686.68	1079.01
687.02	1081.09
687.36	1079.50
687.70	1077.25
688.03	1077.77
688.37	1077.33
688.71	1074.82
689.05	1075.20
689.39	1072.67
689.72	1072.67
690.06	1072.06
690.40	1072.53
690.74	1075.22
691.08	1078.19
691.41	1081.23
691.75	1080.95
692.09	1083.83
692.43	1085.28
692.76	1085.61
693.10	1086.59
693.44	1084.21
693.78	1084.51
694.11	1082.08
694.45	1083.15
694.79	1080.30
695.13	1083.60
695.46	1081.61
695.80	1082.10
696.14	1082.19
696.48	1080.30
696.81	1080.48
697.15	1079.27
697.49	1079.97
697.82	1077.96
698.16	1079.01
698.50	1078.50
698.83	1078.87
699.17	1077.18
699.51	1079.74
699.84	1082.92
700.18	1081.26
700.52	1080.13
700.85	1083.29
701.19	1080.79
701.53	1079.83
701.86	1081.19
702.20	1082.26
702.54	1082.12
702.87	1081.54
703.21	1078.80
703.55	1077.00
703.88	1076.58
704.22	1076.48
704.55	1078.36
704.89	1078.19
705.23	1077.68
705.56	1079.41
705.90	1078.00
706.23	1077.65
706.57	1078.96
706.91	1082.05
707.24	1081.33
707.58	1082.29
707.91	1085.59
708.25	1083.48
708.58	1081.80
708.92	1083.69
709.26	1083.57
709.59	1081.42
709.93	1080.93
710.26	1079.34
710.60	1077.25
710.93	1073.53
711.27	1073.79
711.60	1073.77
711.94	1073.98
712.27	1074.73
712.61	1078.80
712.94	1079.01
713.28	1086.43
713.61	1087.13
713.95	1085.70
714.28	1083.27
714.62	1081.91
714.95	1076.06
715.29	1076.06
715.62	1078.10
715.96	1079.64
716.29	1082.05
716.63	1084.37
716.96	1085.45
717.29	1086.71
717.63	1086.52
717.96	1084.72
718.30	1085.52
718.63	1081.66
718.97	1079.62
719.30	1077.02
719.63	1075.55
719.97	1074.28
720.30	1078.05
720.64	1077.30
720.97	1078.85
721.30	1078.52
721.64	1078.47
721.97	1080.58
722.31	1082.22
722.64	1084.98
722.97	1085.33
723.31	1087.27
723.64	1086.29
723.97	1087.69
724.31	1084.58
724.64	1085.35
724.98	1084.53
725.31	1084.07
725.64	1080.70
725.98	1080.48
726.31	1079.62
726.64	1081.30
726.97	1076.90
727.31	1075.31
727.64	1076.44
727.97	1078.40
728.31	1076.44
728.64	1079.92
728.97	1080.51
729.31	1077.54
729.64	1075.83
729.97	1074.00
730.30	1075.87
730.64	1077.89
730.97	1080.25
731.30	1081.56
731.63	1078.12
731.97	1074.77
732.30	1073.88
732.63	1072.74
732.96	1073.25
733.30	1075.55
733.63	1078.26
733.96	1078.10
734.29	1079.60
734.63	1077.77
734.96	1077.89
735.29	1072.85
735.62	1073.88
735.95	1073.56
736.29	1072.20
736.62	1071.47
736.95	1073.23
737.28	1072.39
737.61	1072.60
737.94	1075.97
738.28	1077.72
738.61	1078.00
738.94	1077.77
739.27	1079.38
739.60	1079.88
739.93	1082.31
740.27	1084.30
740.60	1086.90
740.93	1085.35
741.26	1085.24
741.59	1083.90
741.92	1082.40
742.25	1080.39
742.58	1081.16
742.91	1078.71
743.25	1080.98
743.58	1082.40
743.91	1084.60
744.24	1083.32
744.57	1086.99
744.90	1082.22
745.23	1082.50
745.56	1080.84
745.89	1083.06
746.22	1080.32
746.55	1081.51
746.88	1079.64
747.21	1078.14
747.54	1076.04
747.87	1077.23
748.20	1077.77
748.53	1077.86
748.87	1079.20
749.20	1077.96
749.53	1078.82
749.86	1077.37
750.19	1079.55
750.52	1079.41
750.85	1078.57
751.18	1077.18
751.51	1077.70
751.84	1074.61
752.16	1073.16
752.49	1073.18
752.82	1072.92
753.15	1073.72
753.48	1076.32
753.81	1080.48
754.14	1082.71
754.47	1081.66
754.80	1080.56
755.13	1080.86
755.46	1079.55
755.79	1080.65
756.12	1082.45
756.45	1084.70
756.78	1085.42
757.11	1085.26
757.43	1085.33
757.76	1082.99
758.09	1078.87
758.42	1077.35
758.75	1076.51
759.08	1075.52
759.41	1078.73
759.74	1080.93
760.07	1082.59
760.39	1082.15
760.72	1082.85
761.05	1078.66
761.38	1079.41
761.71	1078.38
762.04	1077.02
762.36	1074.94
762.69	1078.47
763.02	1078.00
763.35	1074.38
763.68	1076.60
764.01	1077.23
764.33	1075.13
764.66	1073.07
764.99	1076.41
765.32	1077.44
765.65	1078.19
765.97	1077.23
766.30	1080.44
766.63	1078.61
766.96	1077.25
767.28	1076.27
767.61	1076.48
767.94	1077.14
768.27	1075.99
768.59	1075.05
768.92	1076.93
769.25	1078.07
769.58	1080.77
769.90	1083.34
770.23	1085.35
770.56	1085.21
770.89	1088.70
771.21	1082.94
771.54	1082.64
771.87	1081.21
772.19	1082.50
772.52	1078.89
772.85	1079.03
773.17	1077.72
773.50	1078.89
773.83	1076.58
774.15	1080.34
774.48	1081.09
774.81	1082.80
775.13	1078.96
775.46	1077.54
775.79	1074.45
776.11	1075.71
776.44	1073.77
776.77	1074.12
777.09	1075.41
777.42	1072.85
777.74	1071.80
778.07	1075.76
778.40	1080.34
778.72	1078.85
779.05	1079.41
779.37	1079.62
779.70	1075.38
780.03	1074.73
780.35	1076.44
780.68	1074.26
781.00	1074.98
781.33	1075.59
781.65	1072.69
781.98	1075.20
782.31	1079.50
782.63	1081.51
782.96	1081.07
783.28	1081.73
783.61	1080.37
783.93	1080.81
784.26	1076.69
784.58	1077.02
784.91	1082.05
785.23	1083.25
785.56	1084.81
785.88	1089.17
786.21	1090.53
786.53	1085.28
786.86	1080.06
787.18	1074.19
787.51	1071.40
787.83	1067.96
788.16	1069.11
788.48	1069.98
788.81	1069.34
789.13	1067.00
789.46	1071.85
789.78	1068.85
790.10	1069.74
790.43	1074.10
790.75	1077.75
791.08	1076.11
791.40	1080.30
791.73	1083.20
792.05	1083.22
792.37	1082.24
792.70	1082.31
793.02	1082.31
793.35	1080.84
793.67	1079.69
793.99	1079.60
794.32	1081.30
794.64	1080.46
794.96	1082.15
795.29	1080.60
795.61	1079.41
795.93	1078.12
796.26	1078.61
796.58	1077.86
796.91	1081.30
797.23	1083.25
797.55	1085.94
797.87	1082.38
798.20	1077.40
798.52	1076.41
798.84	1076.46
799.17	1074.19
799.49	1074.75
799.81	1078.19
800.14	1079.78
800.46	1078.05
800.78	1077.82
801.10	1080.02
801.43	1081.33
801.75	1078.52
802.07	1081.66
802.40	1080.41
802.72	1078.05
803.04	1076.90
803.36	1079.57
803.69	1078.07
804.01	1080.86
804.33	1079.34
804.65	1080.13
804.97	1077.11
805.30	1073.39
805.62	1070.14
805.94	1072.15
806.26	1071.40
806.58	1072.95
806.91	1076.41
807.23	1074.52
807.55	1072.92
807.87	1073.04
808.19	1073.00
808.52	1074.10
808.84	1076.25
809.16	1079.06
809.48	1075.41
809.80	1074.87
810.12	1075.57
810.44	1075.41
810.77	1077.14
811.09	1083.71
811.41	1081.30
811.73	1078.40
812.05	1078.87
812.37	1080.93
812.69	1076.20
813.01	1081.49
813.33	1082.99
813.66	1084.32
813.98	1080.44
814.30	1079.69
814.62	1078.17
814.94	1075.41
815.26	1074.87
815.58	1073.70
815.90	1077.98
816.22	1077.23
816.54	1078.00
816.86	1078.00
817.18	1079.83
817.50	1074.80
817.82	1075.24
818.14	1079.53
818.46	1079.78
818.78	1080.04
819.10	1083.76
819.42	1081.51
819.74	1079.57
820.06	1076.69
820.38	1073.77
820.70	1072.41
821.02	1072.20
821.34	1069.53
821.66	1073.37
821.98	1077.30
822.30	1078.47
822.62	1080.18
822.94	1082.64
823.26	1082.22
823.58	1079.90
823.90	1080.02
824.22	1080.53
824.54	1078.31
824.86	1075.57
825.18	1077.44
825.50	1078.75
825.81	1077.02
826.13	1078.26
826.45	1081.58
826.77	1080.20
827.09	1077.77
827.41	1077.91
827.73	1078.59
828.05	1075.87
828.36	1075.57
828.68	1074.38
829.00	1073.09
829.32	1073.46
829.64	1073.91
829.96	1072.83
830.28	1074.77
830.59	1076.37
830.91	1075.17
831.23	1076.25
831.55	1077.30
831.87	1074.63
832.19	1076.97
832.50	1073.81
832.82	1073.65
833.14	1074.07
833.46	1076.53
833.78	1071.33
834.09	1076.37
834.41	1078.38
834.73	1075.59
835.05	1075.85
835.36	1079.81
835.68	1076.88
836.00	1072.41
836.32	1073.32
836.63	1072.81
836.95	1073.70
837.27	1073.74
837.59	1077.42
837.90	1082.31
838.22	1084.70
838.54	1081.80
838.85	1082.33
839.17	1081.16
839.49	1078.78
839.80	1073.84
840.12	1076.55
840.44	1076.62
840.76	1077.33
841.07	1075.48
841.39	1079.48
841.71	1077.91
842.02	1076.58
842.34	1074.54
842.65	1075.73
842.97	1074.80
843.29	1074.21
843.60	1076.04
843.92	1077.11
844.24	1075.97
844.55	1073.95
844.87	1077.75
845.18	1080.46
845.50	1077.35
845.82	1077.68
846.13	1079.99
846.45	1078.43
846.76	1075.92
847.08	1078.33
847.40	1077.79
847.71	1079.74
848.03	1076.46
848.34	1075.48
848.66	1076.62
848.97	1074.84
849.29	1071.36
849.60	1071.57
849.92	1071.19
850.24	1070.68
850.55	1072.15
850.87	1074.84
851.18	1074.96
851.50	1075.34
851.81	1073.39
852.13	1074.52
852.44	1072.46
852.76	1076.88
853.07	1079.17
853.39	1081.23
853.70	1081.70
854.01	1082.80
854.33	1078.00
854.64	1074.84
854.96	1073.37
855.27	1071.24
855.59	1069.02
855.90	1072.22
856.22	1073.49
856.53	1074.00
856.84	1077.11
857.16	1075.38
857.47	1070.02
857.79	1069.55
858.10	1071.15
858.41	1072.60
858.73	1075.64
859.04	1080.81
859.36	1081.30
859.67	1079.69
859.98	1078.40
860.30	1078.71
860.61	1079.38
860.92	1080.72
861.24	1084.72
861.55	1086.13
861.87	1086.29
862.18	1084.67
862.49	1081.70
862.81	1078.96
863.12	1075.94
863.43	1077.58
863.74	1078.47
864.06	1081.49
864.37	1082.01
864.68	1082.66
865.00	1081.73
865.31	1080.32
865.62	1078.28
865.94	1076.95
866.25	1074.24
866.56	1071.38
866.87	1072.62
867.19	1071.05
867.50	1073.11
867.81	1074.66
868.12	1077.42
868.44	1077.40
868.75	1080.79
869.06	1078.07
869.37	1078.59
869.68	1077.28
870.00	1075.90
870.31	1076.27
870.62	1078.21
870.93	1078.80
871.24	1080.46
871.56	1081.30
871.87	1079.17
872.18	1077.61
872.49	1079.41
872.80	1075.20
873.12	1074.59
873.43	1074.47
873.74	1073.44
874.05	1072.25
874.36	1072.95
874.67	1074.21
874.98	1074.24
875.29	1076.51
875.61	1074.12
875.92	1075.87
876.23	1073.60
876.54	1075.01
876.85	1075.55
877.16	1079.53
877.47	1079.64
877.78	1081.54
878.09	1081.02
878.40	1081.91
878.72	1077.37
879.03	1076.41
879.34	1073.93
879.65	1072.41
879.96	1070.56
880.27	1072.88
880.58	1077.44
880.89	1080.13
881.20	1082.54
881.51	1081.75
881.82	1079.20
882.13	1076.13
882.44	1075.01
882.75	1072.48
883.06	1074.75
883.37	1076.32
883.68	1073.49
883.99	1074.89
884.30	1072.22
884.61	1070.09
884.92	1071.05
885.23	1069.51
885.54	1066.65
885.85	1071.80
886.16	1071.22
886.47	1072.20
886.78	1075.50
887.08	1078.28
887.39	1077.65
887.70	1079.78
888.01	1079.13
888.32	1079.67
888.63	1078.26
888.94	1080.60
889.25	1081.82
889.56	1081.26
889.87	1081.82
890.17	1080.91
890.48	1080.16
890.79	1076.34
891.10	1078.71
891.41	1083.27
891.72	1084.09
892.03	1082.73
892.34	1082.71
892.64	1080.84
892.95	1074.63
893.26	1073.39
893.57	1072.83
893.88	1072.69
894.18	1074.47
894.49	1077.04
894.80	1081.02
895.11	1081.35
895.42	1081.49
895.72	1080.02
896.03	1077.44
896.34	1076.04
896.65	1074.07
896.96	1073.70
897.26	1074.40
897.57	1076.34
897.88	1074.87
898.19	1076.60
898.49	1080.02
898.80	1078.33
899.11	1079.17
899.41	1079.57
899.72	1081.26
900.03	1080.02
900.34	1078.10
900.64	1078.59
900.95	1078.59
901.26	1079.10
901.56	1081.96
901.87	1084.56
902.18	1082.31
902.48	1083.64
902.79	1083.32
903.10	1078.36
903.40	1075.38
903.71	1077.42
904.02	1075.94
904.32	1074.91
904.63	1076.06
904.94	1079.53
905.24	1080.91
905.55	1083.69
905.85	1082.45
906.16	1083.22
906.47	1081.35
906.77	1078.73
907.08	1076.37
907.38	1077.37
907.69	1079.13
908.00	1083.20
908.30	1081.89
908.61	1080.02
908.91	1078.61
909.22	1077.86
909.52	1076.20
909.83	1075.17
910.14	1076.67
910.44	1077.51
910.75	1077.47
911.05	1074.49
911.36	1075.03
911.66	1076.60
911.97	1075.64
912.27	1074.33
912.58	1077.14
912.88	1077.51
913.19	1076.15
913.49	1075.62
913.80	1076.23
914.10	1076.53
914.41	1080.02
914.71	1081.49
915.01	1082.76
915.32	1082.54
915.62	1080.93
915.93	1079.15
916.23	1079.46
916.54	1079.62
916.84	1076.27
917.15	1077.96
917.45	1076.04
917.75	1073.63
918.06	1073.98
918.36	1076.93
918.67	1073.70
918.97	1075.10
919.27	1074.80
919.58	1072.41
919.88	1072.46
920.18	1076.83
920.49	1075.90
920.79	1075.85
921.10	1076.46
921.40	1077.16
921.70	1075.24
922.01	1076.53
922.31	1081.28
922.61	1081.19
922.92	1079.90
923.22	1081.19
923.52	1079.06
923.82	1078.19
924.13	1081.73
924.43	1082.22
924.73	1081.44
925.04	1086.83
925.34	1084.81
925.64	1082.52
925.94	1082.61
926.25	1081.14
926.55	1076.37
926.85	1072.22
927.15	1071.80
927.46	1069.51
927.76	1067.24
928.06	1067.42
928.36	1068.90
928.67	1068.57
928.97	1072.92
929.27	1077.28
929.57	1076.88
929.87	1077.25
930.18	1079.90
930.48	1077.11
930.78	1076.18
931.08	1077.33
931.38	1082.40
931.69	1081.42
931.99	1080.20
932.29	1081.07
932.59	1082.80
932.89	1080.09
933.19	1077.86
933.49	1080.48
933.80	1079.08
934.10	1076.81
934.40	1074.56
934.70	1076.41
935.00	1076.62
935.30	1078.10
935.60	1078.17
935.90	1079.24
936.20	1078.38
936.50	1079.27
936.81	1079.60
937.11	1080.25
937.41	1076.04
937.71	1076.32
938.01	1076.58
938.31	1075.29
938.61	1073.46
938.91	1077.54
939.21	1079.17
939.51	1075.59
939.81	1075.73
940.11	1077.82
940.41	1079.22
940.71	1079.85
941.01	1081.21
941.31	1079.81
941.61	1078.31
941.91	1078.75
942.21	1075.43
942.51	1075.05
942.81	1076.34
943.11	1079.15
943.41	1078.05
943.71	1078.36
944.01	1078.94
944.31	1076.76
944.61	1072.27
944.90	1072.53
945.20	1076.41
945.50	1077.84
945.80	1079.41
946.10	1083.34
946.40	1083.57
946.70	1082.47
947.00	1083.15
947.30	1084.37
947.60	1083.86
947.89	1084.32
948.19	1083.55
948.49	1081.70
948.79	1080.04
949.09	1079.46
949.39	1079.17
949.69	1078.36
949.98	1075.52
950.28	1075.52
950.58	1074.59
950.88	1072.34
951.18	1071.31
951.48	1071.50
951.77	1070.87
952.07	1073.77
952.37	1077.51
952.67	1076.74
952.97	1080.09
953.26	1084.96
953.56	1084.04
953.86	1077.82
954.16	1079.06
954.45	1078.66
954.75	1075.31
955.05	1072.95
955.35	1074.96
955.64	1074.17
955.94	1076.76
956.24	1075.55
956.54	1077.44
956.83	1079.90
957.13	1080.44
957.43	1077.68
957.72	1078.50
958.02	1078.47
958.32	1077.72
958.61	1078.47
958.91	1077.89
959.21	1077.98
959.50	1076.65
959.80	1076.93
960.10	1074.28
960.39	1074.89
960.69	1072.36
960.99	1071.92
961.28	1070.98
961.58	1071.17
961.87	1069.55
962.17	1071.82
962.47	1073.25
962.76	1073.07
963.06	1077.58
963.36	1075.66
963.65	1073.74
963.95	1072.27
964.24	1073.46
964.54	1072.20
964.83	1074.21
965.13	1077.51
965.42	1078.99
965.72	1077.84
966.02	1076.51
966.31	1079.55
966.61	1076.51
966.90	1076.74
967.20	1077.23
967.49	1078.38
967.79	1076.44
968.08	1080.04
968.38	1079.24
968.67	1080.84
968.97	1080.60
969.26	1082.50
969.56	1081.63
969.85	1083.69
970.15	1083.13
970.44	1085.70
970.74	1083.36
971.03	1080.84
971.32	1078.24
971.62	1076.11
971.91	1074.75
972.21	1074.89
972.50	1077.82
972.80	1080.65
973.09	1084.51
973.38	1082.15
973.68	1080.44
973.97	1080.13
974.27	1079.24
974.56	1076.65
974.85	1075.83
975.15	1079.83
975.44	1077.16
975.73	1075.38
976.03	1076.25
976.32	1077.91
976.61	1075.03
976.91	1076.60
977.20	1077.79
977.49	1078.12
977.79	1076.76
978.08	1075.92
978.37	1077.23
978.67	1080.16
978.96	1079.78
979.25	1083.08
979.55	1085.03
979.84	1080.60
980.13	1077.91
980.42	1079.90
980.72	1074.59
981.01	1073.39
981.30	1078.52
981.59	1077.30
981.89	1077.72
982.18	1081.63
982.47	1084.72
982.76	1083.04
983.06	1081.23
983.35	1077.91
983.64	1075.27
983.93	1071.90
984.22	1069.11
984.52	1070.54
984.81	1071.78
985.10	1076.06
985.39	1079.08
985.68	1079.97
985.97	1078.40
986.27	1076.83
986.56	1073.21
986.85	1070.07
987.14	1073.09
987.43	1076.11
987.72	1078.96
988.01	1082.57
988.31	1084.21
988.60	1082.33
988.89	1078.47
989.18	1075.85
989.47	1073.23
989.76	1070.28
990.05	1067.89
990.34	1070.72
990.63	1070.89
990.92	1071.01
991.21	1074.03
991.51	1074.40
991.80	1076.72
992.09	1078.19
992.38	1075.87
992.67	1076.37
992.96	1078.80
993.25	1077.70
993.54	1075.41
993.83	1081.28
994.12	1078.71
994.41	1080.37
994.70	1080.86
994.99	1080.23
995.28	1075.38
995.57	1075.92
995.86	1072.29
996.15	1071.05
996.44	1072.85
996.73	1071.78
997.02	1073.14
997.31	1076.48
997.59	1074.40
997.88	1074.10
998.17	1076.51
998.46	1078.61
998.75	1075.78
999.04	1078.03
999.33	1078.99
999.62	1078.75
999.91	1076.81
1000.20	1077.98
1000.49	1078.68
1000.77	1079.31
1001.06	1082.50
1001.35	1081.73
1001.64	1081.49
1001.93	1080.20
1002.22	1078.17
1002.51	1076.46
1002.79	1074.03
1003.08	1073.79
1003.37	1073.46
1003.66	1070.65
1003.95	1072.41
1004.23	1077.07
1004.52	1076.93
1004.81	1076.79
1005.10	1078.78
1005.39	1077.77
1005.67	1077.75
1005.96	1079.22
1006.25	1078.59
1006.54	1082.15
1006.83	1082.10
1007.11	1079.20
1007.40	1078.66
1007.69	1079.13
1007.97	1075.13
1008.26	1074.47
1008.55	1071.75
1008.84	1071.92
1009.12	1071.33
1009.41	1073.74
1009.70	1069.53
1009.98	1071.75
1010.27	1071.22
1010.56	1072.01
1010.85	1069.65
1011.13	1075.10
1011.42	1078.78
1011.71	1076.55
1011.99	1077.84
1012.28	1080.70
1012.56	1079.20
1012.85	1074.63
1013.14	1075.20
1013.42	1071.12
1013.71	1067.94
1014.00	1065.04
1014.28	1068.57
1014.57	1070.14
1014.85	1075.69
1015.14	1076.25
1015.43	1079.31
1015.71	1077.37
1016.00	1077.61
1016.28	1076.79
1016.57	1080.37
1016.85	1078.45
1017.14	1079.67
1017.43	1081.00
1017.71	1079.85
1018.00	1080.70
1018.28	1080.46
1018.57	1078.80
1018.85	1075.85
1019.14	1074.59
1019.42	1070.44
1019.71	1071.85
1019.99	1072.71
1020.28	1074.63
1020.56	1075.52
1020.85	1078.85
1021.13	1077.54
1021.42	1079.10
1021.70	1077.00
1021.99	1077.07
1022.27	1073.98
1022.55	1076.41
1022.84	1071.73
>>>>>End Processed Spectral Data<<<<<
