SpectraSuite Data File
++++++++++++++++++++++++++++++++++++
Date: Mon Aug 26 10:22:16 PDT 2019
User: corrico
Dark Spectrum Present: No
Reference Spectrum Present: No
Number of Sampled Component Spectra: 1
Spectrometers: USB2+H06089
Integration Time (usec): 2000 (USB2+H06089)
Spectra Averaged: 20 (USB2+H06089)
Boxcar Smoothing: 2 (USB2+H06089)
Correct for Electrical Dark: No (USB2+H06089)
Strobe/Lamp Enabled: No (USB2+H06089)
Correct for Detector Non-linearity: No (USB2+H06089)
Correct for Stray Light: No (USB2+H06089)
Number of Pixels in Processed Spectrum: 2048
>>>>>Begin Processed Spectral Data<<<<<
339.70	1031.71
340.07	1031.71
340.45	996.44
340.82	974.67
341.19	950.66
341.57	923.58
341.94	916.93
342.31	909.93
342.69	904.43
343.06	901.34
343.43	900.66
343.81	900.59
344.18	900.29
344.55	903.56
344.93	910.98
345.30	919.69
345.67	925.82
346.04	935.28
346.42	943.49
346.79	950.42
347.16	958.40
347.54	966.43
347.91	972.14
348.28	983.98
348.65	990.80
349.03	1000.95
349.40	1009.73
349.77	1022.91
350.14	1029.51
350.52	1038.99
350.89	1044.91
351.26	1052.16
351.63	1056.49
352.01	1061.71
352.38	1064.97
352.75	1068.52
353.12	1069.93
353.50	1070.23
353.87	1072.48
354.24	1075.71
354.61	1079.69
354.98	1084.39
355.36	1085.89
355.73	1088.44
356.10	1091.58
356.47	1089.64
356.84	1085.94
357.22	1089.05
357.59	1087.58
357.96	1085.31
358.33	1085.82
358.70	1089.17
359.08	1088.51
359.45	1088.30
359.82	1087.39
360.19	1086.97
360.56	1081.68
360.94	1079.71
361.31	1079.90
361.68	1081.16
362.05	1080.74
362.42	1083.64
362.79	1081.80
363.16	1080.18
363.54	1077.07
363.91	1077.51
364.28	1079.50
364.65	1079.90
365.02	1079.27
365.39	1080.09
365.76	1078.03
366.14	1073.23
366.51	1072.90
366.88	1073.93
367.25	1073.30
367.62	1072.01
367.99	1072.83
368.36	1073.46
368.73	1072.92
369.10	1072.32
369.48	1072.90
369.85	1072.55
370.22	1071.85
370.59	1072.62
370.96	1072.78
371.33	1075.08
371.70	1078.00
372.07	1080.34
372.44	1078.89
372.81	1078.82
373.18	1077.11
373.55	1077.30
373.93	1074.28
374.30	1075.90
374.67	1078.61
375.04	1077.65
375.41	1076.39
375.78	1080.70
376.15	1080.84
376.52	1081.91
376.89	1082.90
377.26	1084.93
377.63	1083.13
378.00	1082.10
378.37	1078.61
378.74	1080.74
379.11	1080.02
379.48	1079.53
379.85	1080.25
380.22	1084.96
380.59	1082.69
380.96	1081.09
381.33	1083.53
381.70	1082.59
382.07	1079.20
382.44	1081.40
382.81	1084.79
383.18	1082.61
383.55	1084.44
383.92	1086.87
384.29	1086.22
384.66	1083.93
385.03	1084.77
385.40	1083.11
385.77	1080.41
386.14	1081.33
386.51	1081.40
386.88	1081.98
387.25	1081.75
387.62	1081.07
387.99	1081.61
388.36	1084.23
388.73	1082.97
389.10	1083.36
389.46	1083.39
389.83	1081.47
390.20	1080.11
390.57	1081.12
390.94	1082.54
391.31	1084.39
391.68	1085.77
392.05	1088.65
392.42	1085.61
392.79	1086.45
393.16	1089.00
393.53	1089.40
393.89	1085.91
394.26	1092.19
394.63	1092.37
395.00	1090.85
395.37	1091.09
395.74	1090.01
396.11	1086.29
396.48	1082.92
396.84	1081.75
397.21	1083.18
397.58	1083.86
397.95	1083.83
398.32	1088.42
398.69	1088.86
399.06	1084.18
399.42	1087.48
399.79	1086.64
400.16	1085.03
400.53	1086.31
400.90	1085.80
401.27	1086.08
401.64	1085.59
402.00	1086.85
402.37	1090.20
402.74	1094.69
403.11	1094.32
403.48	1093.31
403.84	1092.70
404.21	1089.43
404.58	1089.24
404.95	1086.36
405.32	1092.47
405.68	1093.62
406.05	1094.72
406.42	1091.49
406.79	1094.13
407.16	1091.30
407.52	1089.24
407.89	1087.37
408.26	1091.49
408.63	1090.81
408.99	1092.73
409.36	1092.52
409.73	1092.45
410.10	1093.83
410.47	1095.16
410.83	1093.43
411.20	1096.87
411.57	1097.92
411.94	1098.62
412.30	1098.30
412.67	1099.91
413.04	1099.91
413.40	1098.86
413.77	1095.93
414.14	1093.12
414.51	1092.66
414.87	1090.39
415.24	1096.52
415.61	1098.69
415.97	1103.84
416.34	1107.56
416.71	1108.69
417.08	1105.48
417.44	1103.87
417.81	1101.25
418.18	1099.07
418.54	1102.04
418.91	1105.27
419.28	1107.75
419.64	1110.70
420.01	1112.57
420.38	1111.66
420.74	1109.93
421.11	1113.58
421.48	1114.89
421.84	1118.33
422.21	1120.74
422.58	1124.42
422.94	1125.07
423.31	1128.37
423.68	1128.26
424.04	1130.31
424.41	1132.87
424.77	1137.06
425.14	1139.47
425.51	1145.29
425.87	1151.57
426.24	1152.46
426.61	1157.47
426.97	1164.35
427.34	1166.69
427.70	1169.92
428.07	1179.19
428.44	1183.89
428.80	1188.03
429.17	1195.80
429.53	1203.85
429.90	1215.79
430.27	1223.16
430.63	1235.31
431.00	1247.32
431.36	1257.69
431.73	1265.90
432.09	1282.24
432.46	1291.58
432.83	1303.77
433.19	1319.52
433.56	1334.62
433.92	1354.40
434.29	1375.46
434.65	1395.71
435.02	1418.79
435.38	1446.61
435.75	1472.67
436.11	1503.21
436.48	1536.12
436.84	1571.15
437.21	1604.09
437.57	1636.71
437.94	1678.47
438.30	1725.21
438.67	1768.56
439.03	1816.30
439.40	1868.68
439.76	1918.19
440.13	1971.60
440.49	2036.90
440.86	2098.69
441.22	2167.87
441.59	2242.44
441.95	2318.18
442.32	2395.30
442.68	2489.98
443.05	2583.86
443.41	2683.00
443.78	2780.44
444.14	2882.16
444.51	2990.10
444.87	3116.10
445.24	3241.41
445.60	3389.73
445.96	3543.57
446.33	3704.18
446.69	3861.18
447.06	4034.22
447.42	4212.00
447.79	4389.16
448.15	4598.29
448.51	4816.49
448.88	5067.47
449.24	5304.19
449.61	5580.68
449.97	5842.00
450.33	6114.20
450.70	6361.55
451.06	6671.51
451.43	6958.01
451.79	7313.45
452.15	7709.58
452.52	8143.92
452.88	8597.05
453.24	9121.72
453.61	9674.35
453.97	10210.56
454.34	10751.79
454.70	11377.53
455.06	11993.16
455.43	12593.32
455.79	13161.16
456.15	13839.45
456.52	14460.11
456.88	15166.86
457.24	15850.30
457.61	16670.14
457.97	17416.18
458.33	18173.14
458.70	18939.99
459.06	19679.88
459.42	20480.25
459.79	21223.42
460.15	22087.26
460.51	22905.84
460.88	23784.97
461.24	24549.27
461.60	25464.28
461.96	26290.82
462.33	27096.92
462.69	27895.18
463.05	28767.97
463.42	29507.79
463.78	30165.15
464.14	30703.78
464.50	31277.96
464.87	31692.33
465.23	32007.60
465.59	32363.48
465.95	32692.20
466.32	32955.63
466.68	33186.39
467.04	33334.68
467.40	33434.60
467.77	33583.20
468.13	33564.66
468.49	33507.04
468.85	33451.64
469.22	33323.14
469.58	32990.67
469.94	32743.77
470.30	32427.89
470.66	31994.91
471.03	31424.38
471.39	31051.28
471.75	30452.45
472.11	29890.72
472.47	29582.45
472.84	29285.84
473.20	28827.51
473.56	28563.90
473.92	28155.45
474.28	27648.68
474.65	27190.07
475.01	26753.28
475.37	26213.70
475.73	25785.80
476.09	25311.28
476.45	24821.29
476.81	24320.25
477.18	23832.18
477.54	23391.69
477.90	23027.85
478.26	22604.26
478.62	22262.54
478.98	21959.84
479.34	21634.44
479.71	21220.40
480.07	20845.30
480.43	20468.22
480.79	20088.82
481.15	19724.68
481.51	19407.11
481.87	19180.01
482.23	18909.66
482.59	18636.47
482.96	18375.22
483.32	18088.10
483.68	17716.05
484.04	17405.56
484.40	17074.33
484.76	16727.55
485.12	16385.08
485.48	16084.11
485.84	15720.11
486.20	15367.37
486.56	15015.80
486.92	14712.56
487.28	14384.79
487.64	14054.59
488.00	13739.93
488.37	13429.34
488.73	13090.55
489.09	12754.54
489.45	12454.46
489.81	12164.16
490.17	11876.53
490.53	11606.67
490.89	11320.66
491.25	11033.12
491.61	10739.88
491.97	10438.16
492.33	10121.86
492.69	9838.93
493.05	9550.81
493.41	9269.15
493.77	8991.12
494.13	8743.96
494.49	8496.78
494.85	8252.00
495.21	8022.51
495.57	7807.42
495.93	7587.92
496.29	7382.40
496.64	7208.80
497.00	7024.11
497.36	6840.99
497.72	6660.93
498.08	6482.46
498.44	6298.73
498.80	6130.28
499.16	5980.30
499.52	5834.30
499.88	5706.55
500.24	5584.10
500.60	5459.30
500.96	5338.72
501.32	5226.79
501.68	5113.25
502.03	4990.47
502.39	4869.13
502.75	4739.28
503.11	4610.25
503.47	4488.80
503.83	4371.00
504.19	4253.99
504.55	4151.88
504.91	4064.83
505.26	3975.59
505.62	3893.18
505.98	3812.92
506.34	3729.27
506.70	3639.65
507.06	3549.12
507.42	3473.05
507.78	3396.75
508.13	3323.26
508.49	3247.75
508.85	3182.33
509.21	3109.33
509.57	3042.95
509.93	2980.84
510.28	2922.28
510.64	2855.78
511.00	2794.76
511.36	2737.96
511.72	2682.65
512.07	2630.18
512.43	2580.35
512.79	2530.52
513.15	2484.78
513.51	2433.15
513.86	2386.67
514.22	2346.11
514.58	2305.45
514.94	2268.68
515.30	2238.93
515.65	2201.88
516.01	2169.30
516.37	2144.45
516.73	2110.62
517.08	2076.62
517.44	2046.82
517.80	2018.57
518.16	1989.92
518.51	1967.71
518.87	1944.47
519.23	1918.28
519.59	1891.46
519.94	1863.86
520.30	1842.70
520.66	1814.41
521.01	1793.65
521.37	1777.68
521.73	1760.11
522.09	1733.73
522.44	1717.91
522.80	1702.86
523.16	1681.77
523.51	1658.74
523.87	1638.42
524.23	1621.85
524.58	1600.65
524.94	1582.04
525.30	1565.96
525.65	1554.00
526.01	1536.19
526.37	1523.88
526.72	1513.44
527.08	1505.34
527.44	1492.33
527.79	1481.14
528.15	1469.60
528.51	1454.85
528.86	1437.84
529.22	1426.14
529.58	1412.75
529.93	1400.30
530.29	1391.31
530.65	1383.51
531.00	1373.40
531.36	1367.29
531.71	1359.73
532.07	1355.45
532.43	1348.08
532.78	1344.85
533.14	1339.02
533.49	1330.71
533.85	1316.93
534.21	1308.71
534.56	1303.26
534.92	1292.91
535.27	1286.97
535.63	1285.87
535.98	1279.66
536.34	1268.78
536.69	1261.31
537.05	1257.62
537.41	1251.51
537.76	1247.48
538.12	1243.06
538.47	1242.29
538.83	1237.23
539.18	1228.66
539.54	1223.42
539.89	1222.81
540.25	1218.53
540.60	1214.48
540.96	1215.07
541.31	1215.65
541.67	1207.72
542.02	1205.10
542.38	1199.92
542.73	1195.83
543.09	1188.69
543.44	1188.38
543.80	1187.38
544.15	1186.98
544.51	1182.60
544.86	1180.12
545.22	1177.76
545.57	1174.57
545.93	1176.03
546.28	1173.64
546.64	1173.05
546.99	1172.75
547.35	1167.39
547.70	1161.87
548.05	1162.19
548.41	1159.34
548.76	1155.03
549.12	1152.95
549.47	1154.26
549.83	1151.26
550.18	1150.51
550.53	1146.82
550.89	1146.86
551.24	1142.81
551.60	1140.94
551.95	1141.95
552.30	1140.64
552.66	1139.47
553.01	1137.92
553.37	1137.80
553.72	1133.85
554.07	1135.82
554.43	1133.59
554.78	1130.03
555.13	1126.59
555.49	1124.11
555.84	1123.20
556.19	1120.91
556.55	1120.44
556.90	1123.25
557.26	1125.42
557.61	1123.86
557.96	1123.11
558.32	1123.11
558.67	1120.95
559.02	1117.25
559.37	1114.80
559.73	1114.42
560.08	1114.19
560.43	1111.38
560.79	1109.79
561.14	1110.23
561.49	1109.98
561.85	1107.78
562.20	1108.13
562.55	1109.69
562.90	1110.00
563.26	1112.55
563.61	1113.49
563.96	1115.36
564.32	1116.69
564.67	1110.58
565.02	1107.19
565.37	1105.83
565.73	1106.84
566.08	1104.66
566.43	1107.96
566.78	1109.23
567.14	1110.09
567.49	1103.16
567.84	1099.33
568.19	1097.20
568.54	1095.75
568.90	1094.01
569.25	1093.05
569.60	1092.28
569.95	1091.77
570.31	1091.25
570.66	1090.81
571.01	1092.70
571.36	1094.95
571.71	1092.63
572.06	1092.21
572.42	1093.08
572.77	1093.66
573.12	1093.57
573.47	1097.95
573.82	1096.17
574.18	1096.42
574.53	1101.27
574.88	1101.34
575.23	1099.58
575.58	1100.68
575.93	1097.66
576.28	1094.13
576.64	1093.36
576.99	1093.08
577.34	1091.81
577.69	1093.80
578.04	1091.37
578.39	1091.23
578.74	1090.36
579.09	1090.88
579.44	1089.24
579.80	1089.52
580.15	1087.72
580.50	1088.54
580.85	1089.73
581.20	1095.35
581.55	1095.21
581.90	1097.13
582.25	1095.93
582.60	1093.87
582.95	1088.23
583.30	1087.74
583.65	1084.35
584.00	1087.69
584.35	1090.53
584.71	1093.10
585.06	1092.33
585.41	1095.23
585.76	1091.58
586.11	1089.75
586.46	1087.02
586.81	1088.65
587.16	1088.21
587.51	1090.71
587.86	1091.39
588.21	1092.14
588.56	1090.01
588.91	1090.48
589.26	1086.48
589.61	1084.84
589.96	1083.83
590.31	1084.93
590.66	1086.45
591.01	1085.96
591.36	1084.09
591.71	1083.08
592.06	1084.98
592.41	1083.83
592.76	1084.00
593.10	1084.98
593.45	1086.17
593.80	1084.77
594.15	1082.90
594.50	1084.63
594.85	1086.57
595.20	1086.45
595.55	1087.93
595.90	1089.80
596.25	1092.21
596.60	1091.23
596.95	1089.66
597.30	1087.86
597.64	1097.78
597.99	1095.89
598.34	1097.83
598.69	1099.72
599.04	1098.44
599.39	1085.10
599.74	1084.77
600.09	1086.50
600.44	1085.96
600.78	1087.93
601.13	1089.59
601.48	1088.79
601.83	1088.82
602.18	1091.34
602.53	1089.12
602.88	1090.20
603.22	1091.25
603.57	1088.44
603.92	1087.34
604.27	1087.41
604.62	1087.67
604.97	1088.00
605.31	1086.66
605.66	1085.82
606.01	1089.40
606.36	1087.30
606.71	1088.26
607.05	1088.23
607.40	1087.97
607.75	1085.45
608.10	1087.09
608.44	1082.69
608.79	1083.97
609.14	1082.66
609.49	1081.33
609.84	1078.12
610.18	1081.70
610.53	1078.21
610.88	1079.88
611.23	1080.56
611.57	1083.79
611.92	1082.83
612.27	1089.45
612.62	1084.04
612.96	1083.64
613.31	1080.23
613.66	1081.91
614.00	1076.41
614.35	1081.37
614.70	1081.23
615.05	1083.53
615.39	1079.83
615.74	1082.03
616.09	1084.16
616.43	1082.24
616.78	1083.13
617.13	1085.33
617.47	1085.49
617.82	1081.94
618.17	1087.86
618.51	1088.28
618.86	1089.26
619.21	1090.64
619.55	1092.52
619.90	1088.61
620.25	1088.26
620.59	1090.41
620.94	1085.66
621.29	1086.62
621.63	1090.39
621.98	1087.86
622.32	1084.63
622.67	1087.44
623.02	1087.13
623.36	1083.88
623.71	1085.54
624.05	1088.77
624.40	1088.54
624.75	1085.00
625.09	1082.94
625.44	1082.03
625.78	1078.80
626.13	1078.26
626.48	1080.84
626.82	1082.26
627.17	1082.19
627.51	1081.23
627.86	1080.63
628.20	1079.36
628.55	1078.99
628.89	1077.79
629.24	1076.55
629.58	1079.15
629.93	1078.89
630.28	1079.06
630.62	1080.32
630.97	1079.97
631.31	1077.09
631.66	1077.33
632.00	1078.50
632.35	1079.38
632.69	1082.52
633.04	1084.30
633.38	1085.33
633.73	1086.15
634.07	1085.87
634.42	1084.39
634.76	1083.71
635.11	1079.53
635.45	1080.93
635.79	1082.08
636.14	1082.64
636.48	1082.43
636.83	1086.87
637.17	1084.84
637.52	1082.05
637.86	1080.84
638.21	1082.17
638.55	1079.74
638.89	1078.80
639.24	1080.44
639.58	1080.91
639.93	1079.43
640.27	1083.90
640.61	1084.30
640.96	1084.09
641.30	1087.76
641.65	1088.19
641.99	1085.94
642.33	1087.16
642.68	1088.68
643.02	1087.39
643.37	1086.24
643.71	1085.28
644.05	1084.86
644.40	1083.32
644.74	1082.19
645.08	1084.63
645.43	1084.23
645.77	1082.78
646.11	1079.31
646.46	1077.23
646.80	1075.03
647.14	1078.26
647.49	1081.09
647.83	1084.96
648.17	1085.77
648.52	1089.66
648.86	1088.33
649.20	1085.70
649.55	1085.84
649.89	1083.04
650.23	1081.63
650.57	1079.41
650.92	1081.26
651.26	1081.16
651.60	1086.24
651.95	1083.67
652.29	1085.84
652.63	1083.79
652.97	1085.17
653.32	1083.86
653.66	1085.52
654.00	1084.37
654.34	1084.67
654.69	1083.97
655.03	1083.53
655.37	1083.81
655.71	1083.69
656.05	1084.09
656.40	1083.64
656.74	1080.79
657.08	1080.67
657.42	1077.72
657.76	1078.66
658.11	1076.79
658.45	1078.94
658.79	1077.96
659.13	1082.01
659.47	1081.21
659.82	1081.21
660.16	1083.71
660.50	1081.94
660.84	1081.66
661.18	1083.88
661.52	1084.98
661.87	1083.69
662.21	1085.73
662.55	1085.26
662.89	1083.76
663.23	1083.79
663.57	1083.36
663.91	1081.37
664.25	1079.43
664.60	1077.58
664.94	1080.39
665.28	1080.93
665.62	1081.75
665.96	1083.13
666.30	1085.82
666.64	1081.58
666.98	1080.58
667.32	1080.39
667.66	1080.51
668.01	1078.31
668.35	1081.96
668.69	1081.40
669.03	1085.14
669.37	1087.13
669.71	1087.34
670.05	1086.31
670.39	1086.92
670.73	1084.11
671.07	1082.76
671.41	1083.93
671.75	1082.10
672.09	1081.35
672.43	1083.64
672.77	1083.71
673.11	1082.36
673.45	1083.97
673.79	1086.17
674.13	1083.83
674.47	1088.44
674.81	1086.48
675.15	1086.27
675.49	1085.45
675.83	1082.64
676.17	1076.74
676.51	1075.78
676.85	1074.73
677.19	1072.78
677.53	1073.77
677.87	1071.57
678.21	1074.31
678.55	1076.46
678.89	1079.13
679.23	1080.46
679.57	1083.41
679.90	1082.01
680.24	1079.60
680.58	1078.94
680.92	1077.65
681.26	1080.23
681.60	1082.90
681.94	1083.36
682.28	1083.71
682.62	1086.10
682.96	1081.63
683.29	1080.77
683.63	1078.24
683.97	1077.70
684.31	1078.43
684.65	1080.46
684.99	1082.90
685.33	1085.96
685.67	1087.53
686.00	1087.04
686.34	1085.35
686.68	1081.33
687.02	1079.69
687.36	1076.69
687.70	1074.73
688.03	1075.34
688.37	1077.37
688.71	1078.36
689.05	1080.32
689.39	1080.39
689.72	1082.17
690.06	1080.60
690.40	1083.90
690.74	1082.97
691.08	1084.98
691.41	1085.49
691.75	1087.65
692.09	1080.41
692.43	1078.26
692.76	1076.76
693.10	1075.66
693.44	1075.41
693.78	1079.13
694.11	1081.77
694.45	1080.81
694.79	1079.27
695.13	1080.06
695.46	1080.09
695.80	1078.19
696.14	1080.67
696.48	1081.66
696.81	1080.56
697.15	1079.74
697.49	1080.13
697.82	1077.86
698.16	1077.49
698.50	1078.82
698.83	1076.74
699.17	1077.75
699.51	1078.68
699.84	1075.01
700.18	1069.86
700.52	1076.46
700.85	1076.69
701.19	1076.37
701.53	1082.03
701.86	1086.92
702.20	1081.42
702.54	1080.65
702.87	1081.37
703.21	1079.99
703.55	1075.80
703.88	1078.24
704.22	1078.61
704.55	1076.51
704.89	1075.73
705.23	1076.04
705.56	1075.27
705.90	1076.55
706.23	1077.75
706.57	1078.21
706.91	1080.02
707.24	1077.89
707.58	1076.39
707.91	1076.76
708.25	1080.39
708.58	1081.61
708.92	1083.64
709.26	1083.08
709.59	1083.08
709.93	1079.13
710.26	1078.43
710.60	1079.34
710.93	1079.10
711.27	1081.66
711.60	1083.79
711.94	1083.06
712.27	1083.67
712.61	1084.84
712.94	1080.20
713.28	1078.17
713.61	1078.33
713.95	1073.79
714.28	1071.38
714.62	1075.17
714.95	1076.48
715.29	1076.06
715.62	1082.31
715.96	1085.73
716.29	1084.18
716.63	1082.08
716.96	1081.80
717.29	1082.64
717.63	1081.23
717.96	1080.74
718.30	1080.06
718.63	1082.36
718.97	1078.38
719.30	1076.65
719.63	1075.20
719.97	1077.11
720.30	1074.40
720.64	1073.67
720.97	1076.53
721.30	1079.31
721.64	1074.87
721.97	1073.93
722.31	1074.80
722.64	1073.07
722.97	1071.17
723.31	1079.78
723.64	1083.79
723.97	1084.00
724.31	1086.90
724.64	1090.62
724.98	1085.89
725.31	1081.96
725.64	1081.56
725.98	1078.96
726.31	1077.23
726.64	1077.02
726.97	1080.44
727.31	1084.02
727.64	1083.69
727.97	1082.76
728.31	1083.25
728.64	1080.23
728.97	1075.87
729.31	1079.64
729.64	1079.55
729.97	1078.68
730.30	1080.53
730.64	1080.04
730.97	1078.73
731.30	1079.46
731.63	1080.53
731.97	1081.58
732.30	1085.91
732.63	1084.23
732.96	1084.67
733.30	1085.94
733.63	1085.12
733.96	1085.21
734.29	1086.48
734.63	1085.84
734.96	1082.59
735.29	1083.20
735.62	1081.66
735.95	1079.67
736.29	1078.50
736.62	1082.36
736.95	1081.87
737.28	1079.90
737.61	1082.08
737.94	1082.99
738.28	1082.54
738.61	1082.59
738.94	1084.11
739.27	1081.26
739.60	1079.03
739.93	1078.66
740.27	1078.80
740.60	1076.83
740.93	1075.90
741.26	1078.99
741.59	1074.47
741.92	1074.21
742.25	1074.26
742.58	1077.42
742.91	1076.76
743.25	1079.62
743.58	1079.22
743.91	1080.44
744.24	1079.85
744.57	1076.81
744.90	1073.44
745.23	1070.26
745.56	1069.04
745.89	1069.16
746.22	1071.78
746.55	1076.90
746.88	1078.52
747.21	1078.28
747.54	1078.94
747.87	1077.49
748.20	1077.72
748.53	1077.44
748.87	1079.29
749.20	1075.36
749.53	1078.54
749.86	1077.77
750.19	1077.79
750.52	1078.89
750.85	1080.04
751.18	1078.94
751.51	1077.37
751.84	1079.06
752.16	1077.00
752.49	1076.81
752.82	1077.49
753.15	1081.96
753.48	1080.65
753.81	1081.51
754.14	1086.99
754.47	1084.39
754.80	1080.60
755.13	1082.99
755.46	1082.01
755.79	1077.49
756.12	1077.65
756.45	1077.18
756.78	1077.28
757.11	1076.11
757.43	1077.84
757.76	1079.76
758.09	1077.72
758.42	1074.52
758.75	1075.34
759.08	1074.70
759.41	1074.17
759.74	1076.23
760.07	1079.60
760.39	1082.71
760.72	1083.55
761.05	1081.19
761.38	1078.40
761.71	1075.10
762.04	1073.88
762.36	1074.82
762.69	1076.62
763.02	1081.07
763.35	1078.92
763.68	1080.72
764.01	1077.75
764.33	1077.70
764.66	1077.18
764.99	1081.47
765.32	1076.93
765.65	1077.61
765.97	1079.67
766.30	1079.97
766.63	1081.42
766.96	1086.15
767.28	1087.79
767.61	1086.06
767.94	1081.49
768.27	1077.58
768.59	1073.04
768.92	1072.71
769.25	1073.93
769.58	1077.98
769.90	1076.86
770.23	1078.64
770.56	1077.23
770.89	1077.30
771.21	1074.26
771.54	1078.26
771.87	1078.05
772.19	1078.07
772.52	1077.02
772.85	1080.27
773.17	1079.10
773.50	1077.89
773.83	1078.43
774.15	1077.75
774.48	1077.25
774.81	1076.65
775.13	1077.54
775.46	1076.39
775.79	1074.73
776.11	1074.98
776.44	1074.00
776.77	1071.94
777.09	1071.85
777.42	1077.16
777.74	1074.03
778.07	1075.78
778.40	1076.39
778.72	1078.36
779.05	1072.83
779.37	1075.87
779.70	1075.43
780.03	1077.54
780.35	1076.04
780.68	1076.62
781.00	1077.96
781.33	1080.18
781.65	1080.30
781.98	1082.08
782.31	1086.06
782.63	1086.06
782.96	1082.01
783.28	1081.14
783.61	1082.15
783.93	1080.11
784.26	1077.14
784.58	1077.91
784.91	1077.44
785.23	1074.73
785.56	1074.94
785.88	1076.48
786.21	1081.75
786.53	1083.88
786.86	1088.07
787.18	1087.69
787.51	1088.82
787.83	1085.80
788.16	1084.39
788.48	1081.19
788.81	1083.88
789.13	1082.59
789.46	1080.39
789.78	1080.98
790.10	1082.61
790.43	1080.51
790.75	1079.83
791.08	1078.96
791.40	1078.82
791.73	1078.50
792.05	1074.98
792.37	1075.59
792.70	1079.43
793.02	1078.59
793.35	1075.99
793.67	1077.86
793.99	1080.46
794.32	1078.24
794.64	1078.85
794.96	1080.04
795.29	1083.39
795.61	1080.60
795.93	1078.36
796.26	1076.97
796.58	1079.43
796.91	1075.52
797.23	1075.08
797.55	1078.66
797.87	1079.08
798.20	1074.68
798.52	1077.49
798.84	1078.57
799.17	1078.40
799.49	1078.19
799.81	1079.48
800.14	1079.60
800.46	1077.54
800.78	1074.24
801.10	1076.06
801.43	1081.63
801.75	1079.83
802.07	1081.33
802.40	1082.24
802.72	1082.15
803.04	1074.54
803.36	1074.77
803.69	1073.00
804.01	1072.27
804.33	1074.98
804.65	1076.51
804.97	1074.66
805.30	1074.03
805.62	1072.71
805.94	1069.88
806.26	1069.04
806.58	1066.72
806.91	1070.51
807.23	1073.93
807.55	1071.71
807.87	1074.07
808.19	1077.42
808.52	1072.74
808.84	1072.01
809.16	1071.54
809.48	1071.24
809.80	1071.15
810.12	1072.36
810.44	1073.79
810.77	1074.75
811.09	1072.18
811.41	1072.20
811.73	1074.63
812.05	1077.33
812.37	1077.07
812.69	1080.34
813.01	1080.34
813.33	1082.33
813.66	1079.20
813.98	1082.17
814.30	1079.03
814.62	1079.99
814.94	1077.11
815.26	1078.73
815.58	1075.27
815.90	1079.43
816.22	1078.96
816.54	1078.36
816.86	1078.00
817.18	1077.93
817.50	1075.01
817.82	1075.66
818.14	1077.44
818.46	1078.89
818.78	1080.09
819.10	1081.96
819.42	1082.45
819.74	1083.81
820.06	1081.54
820.38	1082.90
820.70	1085.07
821.02	1082.17
821.34	1082.87
821.66	1082.59
821.98	1080.98
822.30	1079.83
822.62	1077.58
822.94	1074.47
823.26	1076.51
823.58	1077.40
823.90	1077.23
824.22	1081.16
824.54	1080.93
824.86	1082.52
825.18	1075.71
825.50	1075.62
825.81	1075.90
826.13	1076.39
826.45	1071.85
826.77	1079.03
827.09	1075.69
827.41	1074.77
827.73	1076.86
828.05	1078.24
828.36	1078.38
828.68	1080.51
829.00	1079.88
829.32	1077.51
829.64	1079.62
829.96	1078.36
830.28	1078.31
830.59	1079.06
830.91	1080.72
831.23	1079.34
831.55	1077.16
831.87	1076.37
832.19	1076.51
832.50	1078.21
832.82	1076.65
833.14	1079.67
833.46	1080.18
833.78	1080.02
834.09	1077.79
834.41	1078.96
834.73	1078.52
835.05	1079.31
835.36	1078.03
835.68	1077.79
836.00	1078.82
836.32	1077.21
836.63	1076.20
836.95	1079.71
837.27	1076.67
837.59	1076.25
837.90	1079.46
838.22	1079.71
838.54	1077.70
838.85	1077.47
839.17	1074.49
839.49	1074.17
839.80	1074.49
840.12	1075.13
840.44	1077.47
840.76	1079.34
841.07	1077.51
841.39	1076.41
841.71	1077.98
842.02	1079.20
842.34	1076.86
842.65	1077.70
842.97	1078.17
843.29	1074.38
843.60	1076.46
843.92	1081.49
844.24	1080.13
844.55	1079.36
844.87	1081.16
845.18	1076.67
845.50	1072.04
845.82	1075.10
846.13	1075.31
846.45	1076.18
846.76	1078.14
847.08	1077.42
847.40	1076.86
847.71	1075.59
848.03	1072.85
848.34	1069.09
848.66	1071.52
848.97	1069.23
849.29	1069.44
849.60	1071.12
849.92	1073.11
850.24	1072.85
850.55	1074.84
850.87	1076.20
851.18	1077.14
851.50	1079.74
851.81	1084.28
852.13	1083.46
852.44	1082.94
852.76	1083.97
853.07	1084.63
853.39	1081.30
853.70	1085.68
854.01	1086.22
854.33	1083.79
854.64	1085.42
854.96	1087.86
855.27	1083.06
855.59	1081.07
855.90	1083.69
856.22	1077.86
856.53	1075.41
856.84	1074.59
857.16	1076.86
857.47	1073.18
857.79	1076.20
858.10	1073.67
858.41	1073.00
858.73	1074.63
859.04	1075.59
859.36	1073.70
859.67	1075.01
859.98	1079.10
860.30	1078.66
860.61	1078.19
860.92	1079.10
861.24	1076.01
861.55	1074.98
861.87	1073.25
862.18	1073.00
862.49	1071.12
862.81	1075.78
863.12	1071.50
863.43	1071.33
863.74	1073.65
864.06	1076.01
864.37	1074.87
864.68	1077.77
865.00	1079.48
865.31	1077.02
865.62	1074.61
865.94	1073.63
866.25	1074.91
866.56	1072.48
866.87	1073.28
867.19	1072.64
867.50	1071.99
867.81	1070.37
868.12	1069.74
868.44	1068.22
868.75	1069.16
869.06	1067.89
869.37	1069.84
869.68	1073.09
870.00	1077.18
870.31	1077.93
870.62	1081.05
870.93	1079.10
871.24	1077.89
871.56	1077.28
871.87	1080.93
872.18	1079.13
872.49	1080.56
872.80	1079.99
873.12	1078.36
873.43	1075.66
873.74	1077.84
874.05	1075.31
874.36	1078.68
874.67	1079.88
874.98	1079.64
875.29	1077.28
875.61	1077.51
875.92	1076.30
876.23	1075.27
876.54	1077.35
876.85	1076.95
877.16	1079.38
877.47	1077.91
877.78	1080.48
878.09	1079.46
878.40	1080.70
878.72	1079.10
879.03	1082.43
879.34	1078.28
879.65	1077.11
879.96	1079.17
880.27	1077.28
880.58	1075.01
880.89	1076.39
881.20	1074.14
881.51	1071.71
881.82	1073.04
882.13	1074.54
882.44	1076.23
882.75	1074.31
883.06	1075.73
883.37	1078.19
883.68	1076.53
883.99	1073.79
884.30	1077.65
884.61	1072.69
884.92	1072.62
885.23	1070.87
885.54	1073.37
885.85	1074.84
886.16	1079.57
886.47	1078.64
886.78	1079.08
887.08	1077.98
887.39	1077.44
887.70	1077.11
888.01	1076.23
888.32	1076.88
888.63	1081.61
888.94	1079.85
889.25	1081.70
889.56	1083.41
889.87	1084.89
890.17	1081.33
890.48	1082.05
890.79	1079.48
891.10	1079.41
891.41	1079.81
891.72	1080.37
892.03	1080.11
892.34	1078.99
892.64	1078.33
892.95	1075.80
893.26	1075.69
893.57	1074.47
893.88	1075.20
894.18	1072.78
894.49	1075.03
894.80	1078.19
895.11	1081.33
895.42	1081.16
895.72	1082.29
896.03	1078.21
896.34	1073.02
896.65	1073.60
896.96	1075.01
897.26	1073.93
897.57	1077.21
897.88	1077.23
898.19	1074.24
898.49	1074.33
898.80	1074.82
899.11	1071.75
899.41	1073.11
899.72	1076.18
900.03	1076.06
900.34	1077.68
900.64	1077.84
900.95	1079.20
901.26	1076.53
901.56	1078.14
901.87	1078.87
902.18	1082.45
902.48	1081.63
902.79	1083.67
903.10	1080.65
903.40	1079.22
903.71	1078.14
904.02	1078.33
904.32	1078.19
904.63	1080.16
904.94	1083.20
905.24	1079.85
905.55	1079.97
905.85	1080.51
906.16	1078.52
906.47	1074.66
906.77	1076.53
907.08	1073.44
907.38	1070.61
907.69	1073.91
908.00	1075.87
908.30	1078.57
908.61	1079.46
908.91	1083.41
909.22	1083.53
909.52	1082.59
909.83	1078.54
910.14	1078.80
910.44	1075.97
910.75	1073.28
911.05	1074.42
911.36	1076.48
911.66	1079.48
911.97	1079.43
912.27	1080.39
912.58	1078.99
912.88	1079.85
913.19	1076.93
913.49	1076.20
913.80	1076.44
914.10	1077.30
914.41	1075.87
914.71	1077.07
915.01	1076.62
915.32	1076.48
915.62	1078.19
915.93	1078.59
916.23	1077.89
916.54	1079.01
916.84	1079.62
917.15	1077.84
917.45	1076.72
917.75	1075.64
918.06	1073.58
918.36	1071.87
918.67	1070.44
918.97	1072.57
919.27	1074.80
919.58	1075.27
919.88	1075.66
920.18	1076.08
920.49	1075.55
920.79	1075.13
921.10	1077.16
921.40	1077.68
921.70	1079.85
922.01	1080.09
922.31	1080.48
922.61	1082.10
922.92	1085.54
923.22	1085.61
923.52	1084.81
923.82	1083.67
924.13	1081.58
924.43	1078.07
924.73	1078.21
925.04	1082.12
925.34	1083.25
925.64	1085.33
925.94	1087.55
926.25	1086.97
926.55	1082.90
926.85	1079.57
927.15	1077.35
927.46	1074.28
927.76	1072.39
928.06	1070.98
928.36	1074.80
928.67	1075.15
928.97	1076.11
929.27	1074.19
929.57	1075.87
929.87	1076.88
930.18	1075.69
930.48	1074.66
930.78	1075.34
931.08	1072.57
931.38	1071.61
931.69	1073.49
931.99	1075.76
932.29	1073.16
932.59	1075.50
932.89	1074.94
933.19	1075.17
933.49	1072.97
933.80	1075.15
934.10	1076.90
934.40	1078.17
934.70	1077.54
935.00	1079.97
935.30	1082.10
935.60	1079.38
935.90	1077.40
936.20	1077.56
936.50	1075.99
936.81	1075.50
937.11	1077.07
937.41	1075.45
937.71	1073.70
938.01	1074.89
938.31	1074.91
938.61	1073.18
938.91	1075.38
939.21	1075.41
939.51	1074.33
939.81	1076.15
940.11	1078.64
940.41	1074.14
940.71	1076.48
941.01	1075.85
941.31	1075.10
941.61	1074.84
941.91	1079.62
942.21	1076.69
942.51	1077.61
942.81	1079.27
943.11	1079.46
943.41	1080.32
943.71	1080.67
944.01	1080.79
944.31	1080.23
944.61	1078.45
944.90	1076.44
945.20	1079.15
945.50	1076.58
945.80	1074.19
946.10	1075.85
946.40	1073.16
946.70	1072.01
947.00	1074.52
947.30	1077.65
947.60	1078.96
947.89	1084.02
948.19	1085.10
948.49	1084.98
948.79	1080.70
949.09	1076.41
949.39	1072.04
949.69	1071.08
949.98	1070.26
950.28	1071.57
950.58	1074.52
950.88	1077.23
951.18	1076.44
951.48	1079.27
951.77	1079.85
952.07	1081.80
952.37	1080.91
952.67	1081.91
952.97	1080.16
953.26	1082.38
953.56	1079.41
953.86	1078.12
954.16	1076.88
954.45	1077.11
954.75	1073.18
955.05	1074.14
955.35	1075.45
955.64	1078.19
955.94	1078.26
956.24	1077.91
956.54	1077.30
956.83	1077.91
957.13	1073.14
957.43	1070.37
957.72	1075.05
958.02	1071.85
958.32	1071.26
958.61	1073.63
958.91	1074.52
959.21	1072.32
959.50	1077.11
959.80	1078.47
960.10	1077.70
960.39	1077.40
960.69	1078.45
960.99	1077.49
961.28	1073.88
961.58	1075.13
961.87	1077.28
962.17	1078.33
962.47	1078.99
962.76	1080.41
963.06	1079.67
963.36	1077.16
963.65	1075.24
963.95	1073.93
964.24	1075.59
964.54	1078.89
964.83	1080.44
965.13	1081.61
965.42	1081.84
965.72	1083.20
966.02	1081.56
966.31	1082.12
966.61	1081.84
966.90	1080.34
967.20	1078.75
967.49	1078.75
967.79	1076.20
968.08	1072.95
968.38	1072.06
968.67	1071.92
968.97	1072.20
969.26	1075.59
969.56	1076.18
969.85	1078.00
970.15	1075.97
970.44	1076.69
970.74	1076.51
971.03	1079.43
971.32	1082.57
971.62	1083.25
971.91	1081.02
972.21	1081.19
972.50	1078.26
972.80	1075.31
973.09	1079.34
973.38	1082.05
973.68	1082.03
973.97	1084.53
974.27	1085.12
974.56	1085.10
974.85	1080.46
975.15	1076.86
975.44	1074.66
975.73	1073.81
976.03	1071.66
976.32	1072.69
976.61	1074.66
976.91	1074.98
977.20	1074.26
977.49	1075.87
977.79	1077.75
978.08	1076.88
978.37	1076.88
978.67	1076.55
978.96	1074.89
979.25	1073.21
979.55	1074.70
979.84	1077.65
980.13	1079.22
980.42	1081.87
980.72	1082.43
981.01	1083.01
981.30	1081.82
981.59	1081.58
981.89	1075.99
982.18	1079.97
982.47	1079.53
982.76	1078.47
983.06	1077.49
983.35	1079.76
983.64	1076.04
983.93	1076.18
984.22	1077.18
984.52	1081.68
984.81	1079.55
985.10	1081.61
985.39	1082.99
985.68	1079.55
985.97	1075.78
986.27	1075.43
986.56	1075.64
986.85	1072.04
987.14	1073.00
987.43	1073.56
987.72	1075.50
988.01	1073.53
988.31	1076.46
988.60	1079.15
988.89	1080.48
989.18	1078.43
989.47	1078.07
989.76	1076.95
990.05	1073.00
990.34	1071.29
990.63	1074.00
990.92	1074.17
991.21	1074.52
991.51	1077.65
991.80	1079.01
992.09	1076.76
992.38	1076.34
992.67	1077.96
992.96	1078.80
993.25	1080.04
993.54	1082.85
993.83	1088.14
994.12	1084.79
994.41	1082.57
994.70	1080.88
994.99	1081.54
995.28	1078.87
995.57	1080.06
995.86	1083.08
996.15	1080.84
996.44	1080.30
996.73	1078.99
997.02	1078.05
997.31	1076.86
997.59	1081.77
997.88	1080.67
998.17	1081.07
998.46	1080.67
998.75	1082.26
999.04	1076.60
999.33	1075.17
999.62	1071.12
999.91	1069.74
1000.20	1065.67
1000.49	1064.41
1000.77	1061.71
1001.06	1065.60
1001.35	1070.14
1001.64	1074.05
1001.93	1078.87
1002.22	1084.58
1002.51	1082.71
1002.79	1081.80
1003.08	1080.02
1003.37	1080.44
1003.66	1077.93
1003.95	1078.14
1004.23	1075.48
1004.52	1075.03
1004.81	1070.30
1005.10	1070.00
1005.39	1068.97
1005.67	1070.21
1005.96	1070.02
1006.25	1072.43
1006.54	1073.81
1006.83	1076.46
1007.11	1079.88
1007.40	1080.56
1007.69	1079.20
1007.97	1079.29
1008.26	1079.15
1008.55	1073.30
1008.84	1072.43
1009.12	1074.47
1009.41	1071.26
1009.70	1070.54
1009.98	1073.95
1010.27	1076.06
1010.56	1077.61
1010.85	1081.77
1011.13	1083.93
1011.42	1083.08
1011.71	1081.16
1011.99	1078.92
1012.28	1079.76
1012.56	1082.73
1012.85	1084.04
1013.14	1086.13
1013.42	1086.52
1013.71	1084.60
1014.00	1079.13
1014.28	1077.44
1014.57	1074.61
1014.85	1076.23
1015.14	1077.02
1015.43	1076.83
1015.71	1081.09
1016.00	1078.05
1016.28	1074.98
1016.57	1074.45
1016.85	1076.46
1017.14	1073.39
1017.43	1081.44
1017.71	1083.79
1018.00	1085.24
1018.28	1083.27
1018.57	1083.88
1018.85	1080.30
1019.14	1081.98
1019.42	1082.22
1019.71	1086.90
1019.99	1086.73
1020.28	1087.46
1020.56	1085.75
1020.85	1086.59
1021.13	1083.08
1021.42	1084.53
1021.70	1083.93
1021.99	1083.18
1022.27	1081.80
1022.55	1076.65
1022.84	1083.90
>>>>>End Processed Spectral Data<<<<<
