SpectraSuite Data File
++++++++++++++++++++++++++++++++++++
Date: Mon Aug 26 10:22:21 PDT 2019
User: corrico
Dark Spectrum Present: No
Reference Spectrum Present: No
Number of Sampled Component Spectra: 1
Spectrometers: USB2+H06089
Integration Time (usec): 2000 (USB2+H06089)
Spectra Averaged: 20 (USB2+H06089)
Boxcar Smoothing: 2 (USB2+H06089)
Correct for Electrical Dark: No (USB2+H06089)
Strobe/Lamp Enabled: No (USB2+H06089)
Correct for Detector Non-linearity: No (USB2+H06089)
Correct for Stray Light: No (USB2+H06089)
Number of Pixels in Processed Spectrum: 2048
>>>>>Begin Processed Spectral Data<<<<<
339.70	1013.92
340.07	1013.92
340.45	985.13
340.82	966.20
341.19	943.75
341.57	918.59
341.94	905.79
342.31	899.56
342.69	892.45
343.06	890.97
343.43	891.63
343.81	893.57
344.18	891.84
344.55	896.80
344.93	904.62
345.30	910.28
345.67	919.08
346.04	928.79
346.42	940.45
346.79	946.07
347.16	957.14
347.54	965.00
347.91	976.03
348.28	983.87
348.65	998.00
349.03	1005.21
349.40	1014.46
349.77	1019.35
350.14	1026.63
350.52	1030.91
350.89	1037.70
351.26	1042.29
351.63	1049.73
352.01	1051.93
352.38	1053.69
352.75	1057.50
353.12	1063.38
353.50	1064.80
353.87	1071.59
354.24	1075.85
354.61	1079.48
354.98	1083.76
355.36	1089.03
355.73	1090.24
356.10	1090.10
356.47	1089.92
356.84	1089.99
357.22	1088.65
357.59	1088.07
357.96	1088.54
358.33	1087.23
358.70	1085.63
359.08	1084.63
359.45	1081.05
359.82	1079.88
360.19	1081.51
360.56	1078.82
360.94	1077.93
361.31	1079.90
361.68	1078.03
362.05	1078.00
362.42	1080.46
362.79	1078.61
363.16	1072.92
363.54	1072.15
363.91	1073.21
364.28	1073.14
364.65	1075.45
365.02	1079.88
365.39	1081.49
365.76	1080.37
366.14	1076.69
366.51	1073.21
366.88	1075.05
367.25	1075.01
367.62	1071.19
367.99	1070.07
368.36	1072.95
368.73	1073.79
369.10	1075.71
369.48	1077.42
369.85	1079.53
370.22	1078.78
370.59	1076.86
370.96	1078.24
371.33	1076.97
371.70	1075.55
372.07	1074.87
372.44	1074.87
372.81	1072.32
373.18	1074.24
373.55	1076.27
373.93	1080.16
374.30	1076.97
374.67	1081.77
375.04	1084.11
375.41	1082.50
375.78	1081.44
376.15	1083.48
376.52	1075.17
376.89	1075.50
377.26	1077.82
377.63	1077.49
378.00	1077.42
378.37	1080.63
378.74	1081.63
379.11	1079.69
379.48	1077.25
379.85	1077.96
380.22	1080.16
380.59	1078.92
380.96	1080.98
381.33	1083.83
381.70	1087.58
382.07	1089.54
382.44	1087.74
382.81	1088.89
383.18	1086.45
383.55	1082.69
383.92	1081.47
384.29	1082.52
384.66	1082.40
385.03	1083.60
385.40	1084.23
385.77	1083.69
386.14	1081.91
386.51	1077.98
386.88	1075.45
387.25	1072.71
387.62	1070.23
387.99	1071.82
388.36	1076.67
388.73	1080.60
389.10	1081.68
389.46	1082.76
389.83	1080.77
390.20	1080.98
390.57	1079.71
390.94	1085.59
391.31	1088.12
391.68	1091.09
392.05	1088.56
392.42	1088.58
392.79	1086.08
393.16	1085.89
393.53	1084.93
393.89	1086.31
394.26	1087.13
394.63	1086.97
395.00	1084.65
395.37	1087.79
395.74	1089.64
396.11	1090.08
396.48	1091.04
396.84	1092.33
397.21	1089.47
397.58	1090.62
397.95	1091.79
398.32	1090.39
398.69	1091.23
399.06	1091.58
399.42	1089.31
399.79	1086.50
400.16	1087.41
400.53	1086.06
400.90	1085.17
401.27	1085.47
401.64	1089.38
402.00	1090.10
402.37	1090.46
402.74	1093.10
403.11	1093.31
403.48	1092.61
403.84	1091.25
404.21	1091.32
404.58	1088.77
404.95	1089.31
405.32	1087.93
405.68	1088.21
406.05	1087.02
406.42	1088.40
406.79	1088.82
407.16	1092.28
407.52	1093.64
407.89	1095.04
408.26	1099.23
408.63	1098.81
408.99	1097.73
409.36	1097.31
409.73	1100.45
410.10	1097.71
410.47	1096.47
410.83	1093.92
411.20	1093.71
411.57	1093.57
411.94	1094.27
412.30	1096.80
412.67	1098.76
413.04	1099.93
413.40	1099.23
413.77	1101.43
414.14	1102.88
414.51	1099.79
414.87	1100.43
415.24	1103.21
415.61	1098.95
415.97	1097.64
416.34	1102.32
416.71	1103.19
417.08	1102.88
417.44	1107.28
417.81	1109.30
418.18	1109.39
418.54	1112.88
418.91	1111.12
419.28	1110.70
419.64	1112.71
420.01	1113.46
420.38	1110.63
420.74	1113.32
421.11	1114.56
421.48	1114.40
421.84	1116.30
422.21	1117.21
422.58	1120.06
422.94	1125.03
423.31	1126.59
423.68	1128.77
424.04	1135.74
424.41	1137.80
424.77	1139.05
425.14	1144.85
425.51	1149.32
425.87	1150.65
426.24	1154.35
426.61	1157.96
426.97	1159.92
427.34	1165.75
427.70	1173.45
428.07	1177.57
428.44	1186.53
428.80	1196.83
429.17	1208.25
429.53	1217.27
429.90	1231.54
430.27	1235.62
430.63	1248.91
431.00	1255.67
431.36	1266.11
431.73	1276.81
432.09	1294.97
432.46	1304.73
432.83	1320.51
433.19	1337.69
433.56	1356.62
433.92	1376.07
434.29	1397.98
434.65	1423.42
435.02	1451.65
435.38	1475.40
435.75	1500.42
436.11	1531.04
436.48	1559.15
436.84	1591.28
437.21	1630.65
437.57	1672.59
437.94	1716.85
438.30	1764.95
438.67	1807.83
439.03	1856.16
439.40	1909.97
439.76	1962.12
440.13	2020.40
440.49	2089.58
440.86	2159.59
441.22	2235.66
441.59	2308.99
441.95	2390.86
442.32	2477.22
442.68	2576.02
443.05	2671.72
443.41	2773.53
443.78	2876.82
444.14	2984.49
444.51	3091.66
444.87	3224.49
445.24	3366.93
445.60	3520.35
445.96	3679.63
446.33	3852.73
446.69	4020.74
447.06	4206.15
447.42	4387.94
447.79	4570.83
448.15	4796.16
448.51	5026.46
448.88	5288.77
449.24	5540.77
449.61	5840.39
449.97	6117.93
450.33	6410.49
450.70	6667.23
451.06	6999.86
451.43	7301.54
451.79	7665.93
452.15	8075.67
452.52	8550.14
452.88	9029.39
453.24	9571.22
453.61	10167.94
453.97	10740.37
454.34	11290.46
454.70	11936.92
455.06	12583.66
455.43	13209.30
455.79	13796.26
456.15	14519.35
456.52	15186.54
456.88	15961.63
457.24	16694.46
457.61	17568.39
457.97	18338.31
458.33	19122.22
458.70	19903.31
459.06	20688.04
459.42	21536.67
459.79	22347.25
460.15	23272.06
460.51	24133.36
460.88	25070.39
461.24	25871.23
461.60	26842.34
461.96	27741.27
462.33	28634.47
462.69	29433.76
463.05	30323.89
463.42	31058.51
463.78	31707.10
464.14	32226.04
464.50	32798.44
464.87	33238.11
465.23	33567.57
465.59	33914.69
465.95	34255.24
466.32	34555.32
466.68	34822.94
467.04	34983.31
467.40	35122.73
467.77	35282.08
468.13	35263.33
468.49	35151.43
468.85	35077.84
469.22	34907.40
469.58	34527.11
469.94	34264.55
470.30	33937.65
470.66	33513.01
471.03	32934.92
471.39	32567.27
471.75	31928.37
472.11	31358.38
472.47	31006.20
472.84	30678.15
473.20	30198.46
473.56	29942.40
473.92	29508.49
474.28	28997.86
474.65	28512.24
475.01	28028.13
475.37	27452.87
475.73	26995.32
476.09	26452.59
476.45	25930.68
476.81	25419.08
477.18	24869.99
477.54	24405.96
477.90	24040.09
478.26	23602.17
478.62	23236.02
478.98	22935.80
479.34	22600.70
479.71	22172.13
480.07	21794.74
480.43	21415.01
480.79	21013.26
481.15	20657.08
481.51	20336.10
481.87	20094.44
482.23	19812.07
482.59	19564.80
482.96	19287.75
483.32	18993.26
483.68	18626.12
484.04	18280.75
484.40	17903.34
484.76	17516.48
485.12	17153.69
485.48	16826.60
485.84	16471.29
486.20	16117.30
486.56	15761.96
486.92	15447.96
487.28	15095.89
487.64	14735.54
488.00	14400.10
488.37	14049.21
488.73	13682.54
489.09	13321.21
489.45	13007.48
489.81	12682.43
490.17	12388.32
490.53	12088.47
490.89	11783.94
491.25	11470.31
491.61	11158.55
491.97	10837.43
492.33	10517.62
492.69	10215.08
493.05	9909.03
493.41	9622.64
493.77	9339.67
494.13	9067.91
494.49	8813.97
494.85	8570.18
495.21	8334.25
495.57	8109.96
495.93	7902.91
496.29	7692.36
496.64	7503.27
497.00	7304.58
497.36	7120.10
497.72	6925.95
498.08	6742.45
498.44	6552.49
498.80	6377.02
499.16	6195.63
499.52	6036.27
499.88	5898.97
500.24	5770.33
500.60	5641.72
500.96	5534.90
501.32	5412.82
501.68	5285.44
502.03	5160.16
502.39	5036.76
502.75	4893.19
503.11	4766.71
503.47	4651.79
503.83	4529.24
504.19	4410.41
504.55	4308.53
504.91	4213.92
505.26	4111.29
505.62	4022.37
505.98	3929.85
506.34	3834.57
506.70	3740.83
507.06	3650.44
507.42	3565.41
507.78	3489.41
508.13	3407.19
508.49	3327.40
508.85	3253.16
509.21	3178.21
509.57	3104.63
509.93	3045.13
510.28	2978.96
510.64	2915.79
511.00	2852.86
511.36	2795.63
511.72	2741.45
512.07	2690.87
512.43	2640.64
512.79	2592.31
513.15	2540.79
513.51	2487.01
513.86	2442.33
514.22	2404.25
514.58	2364.13
514.94	2329.00
515.30	2292.04
515.65	2255.13
516.01	2219.60
516.37	2183.09
516.73	2150.55
517.08	2122.30
517.44	2088.88
517.80	2052.42
518.16	2028.21
518.51	1998.47
518.87	1970.26
519.23	1946.69
519.59	1924.86
519.94	1899.20
520.30	1878.79
520.66	1853.33
521.01	1829.46
521.37	1803.92
521.73	1779.25
522.09	1752.03
522.44	1735.51
522.80	1713.58
523.16	1696.98
523.51	1675.52
523.87	1660.10
524.23	1639.40
524.58	1623.30
524.94	1605.89
525.30	1589.53
525.65	1574.27
526.01	1557.91
526.37	1543.79
526.72	1529.47
527.08	1519.45
527.44	1502.23
527.79	1487.64
528.15	1474.94
528.51	1464.19
528.86	1452.82
529.22	1443.62
529.58	1435.57
529.93	1420.59
530.29	1409.33
530.65	1396.18
531.00	1384.87
531.36	1372.61
531.71	1365.09
532.07	1355.38
532.43	1347.10
532.78	1340.99
533.14	1334.29
533.49	1327.93
533.85	1320.65
534.21	1313.67
534.56	1305.34
534.92	1298.88
535.27	1293.17
535.63	1286.15
535.98	1281.86
536.34	1281.40
536.69	1277.82
537.05	1269.04
537.41	1263.56
537.76	1258.15
538.12	1248.28
538.47	1241.05
538.83	1239.73
539.18	1235.43
539.54	1228.80
539.89	1224.19
540.25	1221.39
540.60	1217.27
540.96	1214.29
541.31	1213.99
541.67	1213.10
542.02	1212.68
542.38	1209.73
542.73	1205.28
543.09	1201.26
543.44	1198.71
543.80	1190.68
544.15	1186.11
544.51	1182.30
544.86	1180.99
545.22	1178.02
545.57	1176.89
545.93	1178.20
546.28	1179.63
546.64	1175.84
546.99	1175.86
547.35	1171.72
547.70	1169.75
548.05	1163.18
548.41	1162.97
548.76	1155.87
549.12	1153.63
549.47	1149.60
549.83	1150.63
550.18	1145.48
550.53	1144.52
550.89	1144.01
551.24	1141.39
551.60	1137.90
551.95	1139.72
552.30	1137.66
552.66	1136.40
553.01	1134.01
553.37	1132.75
553.72	1129.33
554.07	1128.70
554.43	1127.16
554.78	1127.69
555.13	1129.45
555.49	1131.18
555.84	1131.67
556.19	1132.42
556.55	1130.20
556.90	1125.75
557.26	1121.75
557.61	1117.98
557.96	1115.85
558.32	1114.33
558.67	1115.80
559.02	1114.59
559.37	1116.95
559.73	1117.11
560.08	1119.03
560.43	1116.97
560.79	1117.00
561.14	1114.66
561.49	1114.98
561.85	1113.84
562.20	1113.51
562.55	1109.25
562.90	1111.19
563.26	1109.46
563.61	1106.04
563.96	1102.04
564.32	1103.45
564.67	1101.48
565.02	1099.35
565.37	1101.85
565.73	1108.66
566.08	1110.37
566.43	1108.57
566.78	1112.46
567.14	1113.14
567.49	1109.09
567.84	1107.96
568.19	1109.46
568.54	1105.44
568.90	1102.16
569.25	1100.12
569.60	1101.69
569.95	1103.35
570.31	1107.59
570.66	1106.09
571.01	1108.03
571.36	1102.30
571.71	1097.76
572.06	1090.46
572.42	1091.70
572.77	1093.26
573.12	1093.94
573.47	1095.51
573.82	1096.40
574.18	1094.76
574.53	1093.26
574.88	1092.84
575.23	1092.82
575.58	1095.00
575.93	1098.79
576.28	1095.63
576.64	1098.06
576.99	1095.79
577.34	1095.07
577.69	1093.43
578.04	1095.23
578.39	1093.78
578.74	1095.82
579.09	1093.10
579.44	1092.26
579.80	1092.02
580.15	1091.42
580.50	1089.80
580.85	1088.33
581.20	1087.30
581.55	1085.89
581.90	1083.97
582.25	1082.50
582.60	1083.62
582.95	1084.60
583.30	1085.26
583.65	1090.20
584.00	1090.32
584.35	1090.41
584.71	1088.09
585.06	1089.80
585.41	1088.82
585.76	1088.77
586.11	1088.40
586.46	1090.67
586.81	1084.49
587.16	1082.59
587.51	1083.50
587.86	1083.29
588.21	1080.95
588.56	1084.86
588.91	1083.41
589.26	1080.91
589.61	1083.95
589.96	1083.08
590.31	1084.18
590.66	1087.37
591.01	1088.84
591.36	1087.16
591.71	1089.50
592.06	1088.07
592.41	1086.85
592.76	1087.97
593.10	1086.62
593.45	1086.50
593.80	1082.29
594.15	1081.30
594.50	1078.73
594.85	1079.27
595.20	1078.38
595.55	1080.81
595.90	1082.43
596.25	1084.70
596.60	1086.41
596.95	1086.29
597.30	1088.49
597.64	1097.48
597.99	1098.67
598.34	1097.13
598.69	1095.89
599.04	1092.80
599.39	1082.85
599.74	1082.12
600.09	1079.34
600.44	1081.47
600.78	1084.91
601.13	1083.04
601.48	1081.63
601.83	1085.40
602.18	1084.42
602.53	1086.38
602.88	1086.62
603.22	1086.41
603.57	1083.69
603.92	1084.28
604.27	1081.14
604.62	1085.21
604.97	1085.89
605.31	1090.34
605.66	1089.59
606.01	1089.85
606.36	1088.96
606.71	1088.98
607.05	1086.50
607.40	1088.70
607.75	1086.59
608.10	1086.64
608.44	1085.38
608.79	1085.14
609.14	1083.74
609.49	1084.60
609.84	1080.93
610.18	1083.18
610.53	1085.33
610.88	1084.35
611.23	1086.01
611.57	1088.09
611.92	1089.57
612.27	1088.51
612.62	1090.24
612.96	1088.91
613.31	1089.22
613.66	1083.81
614.00	1083.06
614.35	1081.16
614.70	1083.04
615.05	1082.59
615.39	1082.80
615.74	1079.90
616.09	1079.62
616.43	1078.40
616.78	1077.58
617.13	1081.05
617.47	1084.98
617.82	1085.99
618.17	1085.28
618.51	1088.93
618.86	1085.45
619.21	1082.19
619.55	1079.57
619.90	1079.71
620.25	1076.88
620.59	1079.95
620.94	1082.08
621.29	1083.88
621.63	1084.37
621.98	1085.10
622.32	1082.03
622.67	1082.26
623.02	1083.60
623.36	1083.29
623.71	1080.95
624.05	1082.43
624.40	1082.83
624.75	1083.41
625.09	1081.49
625.44	1084.91
625.78	1085.49
626.13	1084.96
626.48	1083.57
626.82	1085.52
627.17	1083.08
627.51	1085.73
627.86	1083.48
628.20	1081.12
628.55	1081.00
628.89	1080.67
629.24	1078.19
629.58	1077.84
629.93	1079.90
630.28	1078.52
630.62	1080.63
630.97	1080.53
631.31	1081.09
631.66	1079.64
632.00	1081.00
632.35	1078.73
632.69	1081.42
633.04	1081.42
633.38	1082.99
633.73	1082.43
634.07	1084.98
634.42	1079.69
634.76	1083.08
635.11	1082.17
635.45	1082.59
635.79	1078.57
636.14	1084.30
636.48	1083.55
636.83	1085.54
637.17	1086.62
637.52	1087.90
637.86	1085.35
638.21	1079.38
638.55	1076.15
638.89	1075.80
639.24	1075.64
639.58	1072.53
639.93	1076.72
640.27	1078.28
640.61	1077.23
640.96	1077.16
641.30	1078.43
641.65	1081.58
641.99	1080.72
642.33	1081.14
642.68	1079.67
643.02	1080.79
643.37	1080.48
643.71	1083.15
644.05	1083.36
644.40	1086.99
644.74	1086.03
645.08	1083.64
645.43	1081.47
645.77	1080.41
646.11	1080.27
646.46	1080.53
646.80	1082.73
647.14	1083.86
647.49	1081.91
647.83	1080.93
648.17	1082.87
648.52	1080.51
648.86	1081.23
649.20	1082.24
649.55	1080.30
649.89	1079.31
650.23	1079.92
650.57	1076.39
650.92	1079.50
651.26	1079.01
651.60	1078.78
651.95	1078.80
652.29	1081.75
652.63	1082.08
652.97	1084.46
653.32	1082.66
653.66	1081.80
654.00	1079.29
654.34	1076.27
654.69	1077.18
655.03	1078.07
655.37	1077.14
655.71	1078.73
656.05	1079.71
656.40	1078.10
656.74	1078.94
657.08	1081.87
657.42	1080.51
657.76	1078.85
658.11	1082.38
658.45	1083.64
658.79	1081.58
659.13	1082.90
659.47	1084.00
659.82	1079.90
660.16	1078.17
660.50	1079.74
660.84	1077.00
661.18	1077.56
661.52	1079.74
661.87	1079.08
662.21	1078.31
662.55	1080.60
662.89	1081.58
663.23	1081.33
663.57	1080.23
663.91	1079.62
664.25	1079.95
664.60	1080.44
664.94	1076.90
665.28	1078.73
665.62	1080.20
665.96	1080.18
666.30	1076.93
666.64	1079.03
666.98	1079.15
667.32	1076.39
667.66	1076.72
668.01	1080.18
668.35	1080.37
668.69	1079.41
669.03	1079.06
669.37	1080.30
669.71	1080.44
670.05	1078.85
670.39	1081.00
670.73	1082.22
671.07	1081.80
671.41	1079.53
671.75	1082.22
672.09	1081.14
672.43	1080.06
672.77	1080.93
673.11	1081.68
673.45	1080.70
673.79	1082.12
674.13	1081.12
674.47	1076.65
674.81	1080.63
675.15	1081.80
675.49	1078.21
675.83	1080.93
676.17	1082.33
676.51	1079.17
676.85	1078.89
677.19	1082.19
677.53	1082.31
677.87	1081.77
678.21	1080.81
678.55	1078.07
678.89	1074.47
679.23	1074.47
679.57	1076.25
679.90	1076.95
680.24	1078.89
680.58	1081.28
680.92	1080.91
681.26	1082.08
681.60	1080.74
681.94	1080.60
682.28	1082.22
682.62	1082.85
682.96	1081.35
683.29	1081.21
683.63	1081.19
683.97	1078.33
684.31	1075.59
684.65	1076.90
684.99	1074.75
685.33	1075.87
685.67	1075.92
686.00	1075.08
686.34	1076.41
686.68	1081.56
687.02	1079.71
687.36	1080.74
687.70	1083.53
688.03	1080.63
688.37	1077.89
688.71	1080.32
689.05	1080.23
689.39	1080.34
689.72	1082.76
690.06	1085.40
690.40	1083.95
690.74	1085.91
691.08	1086.13
691.41	1085.17
691.75	1083.64
692.09	1083.76
692.43	1082.33
692.76	1081.73
693.10	1081.54
693.44	1082.47
693.78	1083.48
694.11	1084.28
694.45	1086.71
694.79	1085.19
695.13	1084.18
695.46	1082.94
695.80	1080.86
696.14	1077.28
696.48	1078.03
696.81	1078.73
697.15	1079.69
697.49	1082.59
697.82	1088.56
698.16	1090.03
698.50	1090.32
698.83	1091.09
699.17	1089.85
699.51	1085.80
699.84	1084.42
700.18	1081.49
700.52	1080.25
700.85	1081.40
701.19	1082.59
701.53	1081.77
701.86	1082.01
702.20	1083.53
702.54	1082.80
702.87	1081.16
703.21	1081.77
703.55	1084.79
703.88	1083.71
704.22	1083.88
704.55	1084.46
704.89	1084.81
705.23	1078.75
705.56	1077.11
705.90	1076.81
706.23	1075.92
706.57	1074.89
706.91	1078.19
707.24	1080.53
707.58	1078.75
707.91	1078.36
708.25	1080.25
708.58	1078.73
708.92	1077.44
709.26	1078.87
709.59	1079.67
709.93	1080.25
710.26	1081.40
710.60	1078.85
710.93	1078.38
711.27	1077.35
711.60	1076.46
711.94	1076.76
712.27	1077.72
712.61	1078.07
712.94	1079.24
713.28	1074.26
713.61	1074.84
713.95	1076.69
714.28	1078.21
714.62	1076.41
714.95	1080.46
715.29	1081.33
715.62	1076.97
715.96	1075.41
716.29	1077.42
716.63	1077.61
716.96	1077.11
717.29	1081.12
717.63	1079.97
717.96	1079.46
718.30	1078.87
718.63	1081.23
718.97	1081.19
719.30	1081.51
719.63	1082.43
719.97	1083.13
720.30	1079.38
720.64	1077.82
720.97	1079.08
721.30	1076.90
721.64	1076.58
721.97	1077.56
722.31	1079.99
722.64	1079.27
722.97	1082.61
723.31	1084.21
723.64	1085.31
723.97	1083.36
724.31	1084.56
724.64	1081.89
724.98	1078.24
725.31	1077.49
725.64	1079.15
725.98	1077.77
726.31	1079.13
726.64	1080.77
726.97	1077.84
727.31	1074.49
727.64	1074.66
727.97	1074.63
728.31	1074.03
728.64	1076.20
728.97	1080.77
729.31	1079.78
729.64	1077.35
729.97	1076.55
730.30	1077.09
730.64	1075.15
730.97	1073.23
731.30	1074.91
731.63	1075.08
731.97	1074.24
732.30	1072.15
732.63	1075.92
732.96	1077.18
733.30	1080.46
733.63	1079.88
733.96	1084.02
734.29	1078.57
734.63	1076.60
734.96	1076.23
735.29	1076.81
735.62	1071.73
735.95	1074.52
736.29	1072.64
736.62	1072.13
736.95	1073.60
737.28	1077.04
737.61	1080.84
737.94	1083.29
738.28	1082.38
738.61	1082.29
738.94	1083.43
739.27	1079.48
739.60	1079.92
739.93	1079.74
740.27	1077.07
740.60	1073.30
740.93	1071.12
741.26	1069.37
741.59	1070.91
741.92	1071.97
742.25	1073.44
742.58	1081.28
742.91	1083.01
743.25	1081.66
743.58	1082.50
743.91	1082.33
744.24	1078.03
744.57	1075.45
744.90	1074.52
745.23	1075.36
745.56	1077.89
745.89	1075.48
746.22	1078.24
746.55	1079.53
746.88	1078.33
747.21	1079.41
747.54	1082.19
747.87	1081.09
748.20	1079.88
748.53	1082.40
748.87	1081.19
749.20	1082.33
749.53	1081.63
749.86	1083.79
750.19	1083.15
750.52	1079.46
750.85	1076.53
751.18	1079.31
751.51	1077.40
751.84	1076.18
752.16	1079.31
752.49	1081.02
752.82	1081.02
753.15	1081.07
753.48	1082.40
753.81	1080.11
754.14	1079.67
754.47	1076.93
754.80	1076.15
755.13	1076.39
755.46	1078.24
755.79	1078.10
756.12	1079.88
756.45	1081.00
756.78	1078.47
757.11	1074.12
757.43	1074.77
757.76	1073.93
758.09	1070.07
758.42	1069.23
758.75	1073.91
759.08	1074.07
759.41	1073.67
759.74	1076.11
760.07	1079.13
760.39	1077.02
760.72	1077.35
761.05	1076.46
761.38	1079.55
761.71	1077.51
762.04	1076.11
762.36	1074.87
762.69	1072.97
763.02	1071.52
763.35	1071.45
763.68	1074.94
764.01	1073.72
764.33	1077.47
764.66	1075.76
764.99	1076.60
765.32	1075.55
765.65	1076.04
765.97	1076.11
766.30	1078.99
766.63	1079.88
766.96	1077.89
767.28	1080.06
767.61	1081.30
767.94	1083.41
768.27	1082.38
768.59	1082.47
768.92	1082.54
769.25	1082.61
769.58	1079.90
769.90	1080.11
770.23	1085.47
770.56	1084.89
770.89	1083.36
771.21	1083.36
771.54	1082.71
771.87	1079.69
772.19	1080.23
772.52	1080.46
772.85	1079.78
773.17	1080.25
773.50	1077.82
773.83	1078.19
774.15	1076.79
774.48	1077.51
774.81	1075.64
775.13	1075.05
775.46	1071.40
775.79	1072.67
776.11	1072.43
776.44	1074.82
776.77	1078.47
777.09	1079.34
777.42	1078.12
777.74	1081.91
778.07	1079.53
778.40	1076.08
778.72	1076.97
779.05	1078.57
779.37	1074.66
779.70	1075.45
780.03	1076.04
780.35	1076.41
780.68	1075.64
781.00	1075.29
781.33	1076.46
781.65	1074.94
781.98	1072.27
782.31	1074.47
782.63	1072.78
782.96	1073.32
783.28	1077.11
783.61	1081.07
783.93	1076.32
784.26	1077.16
784.58	1076.30
784.91	1073.39
785.23	1071.29
785.56	1074.98
785.88	1075.76
786.21	1079.03
786.53	1080.93
786.86	1079.48
787.18	1075.27
787.51	1075.73
787.83	1071.45
788.16	1070.28
788.48	1074.87
788.81	1079.81
789.13	1077.56
789.46	1080.32
789.78	1083.15
790.10	1080.79
790.43	1077.89
790.75	1079.13
791.08	1077.91
791.40	1074.87
791.73	1078.21
792.05	1079.27
792.37	1079.97
792.70	1081.30
793.02	1083.95
793.35	1079.31
793.67	1081.00
793.99	1080.25
794.32	1078.54
794.64	1076.51
794.96	1076.76
795.29	1074.40
795.61	1074.54
795.93	1071.82
796.26	1069.20
796.58	1071.38
796.91	1070.84
797.23	1072.41
797.55	1074.52
797.87	1077.33
798.20	1076.06
798.52	1077.61
798.84	1078.05
799.17	1078.24
799.49	1077.72
799.81	1076.37
800.14	1075.43
800.46	1070.58
800.78	1069.44
801.10	1070.44
801.43	1070.51
801.75	1071.15
802.07	1075.38
802.40	1075.69
802.72	1073.42
803.04	1074.96
803.36	1072.39
803.69	1073.02
804.01	1073.70
804.33	1076.53
804.65	1077.72
804.97	1078.05
805.30	1075.85
805.62	1072.48
805.94	1072.74
806.26	1070.65
806.58	1071.45
806.91	1070.58
807.23	1074.24
807.55	1073.32
807.87	1073.95
808.19	1076.37
808.52	1075.99
808.84	1075.71
809.16	1075.27
809.48	1074.68
809.80	1075.66
810.12	1079.01
810.44	1080.16
810.77	1083.20
811.09	1085.38
811.41	1082.43
811.73	1080.58
812.05	1080.48
812.37	1075.87
812.69	1074.75
813.01	1074.26
813.33	1071.82
813.66	1069.60
813.98	1071.17
814.30	1072.29
814.62	1072.32
814.94	1076.25
815.26	1077.89
815.58	1079.36
815.90	1078.54
816.22	1081.07
816.54	1074.54
816.86	1071.78
817.18	1072.57
817.50	1071.68
817.82	1071.29
818.14	1075.66
818.46	1078.17
818.78	1078.87
819.10	1081.61
819.42	1078.80
819.74	1077.75
820.06	1078.33
820.38	1077.16
820.70	1073.72
821.02	1074.21
821.34	1075.48
821.66	1074.26
821.98	1070.44
822.30	1070.70
822.62	1073.72
822.94	1077.65
823.26	1076.04
823.58	1078.99
823.90	1080.18
824.22	1077.79
824.54	1075.17
824.86	1075.20
825.18	1074.87
825.50	1073.42
825.81	1076.04
826.13	1076.41
826.45	1077.35
826.77	1077.47
827.09	1076.01
827.41	1074.35
827.73	1073.02
828.05	1076.97
828.36	1071.33
828.68	1075.03
829.00	1075.50
829.32	1076.34
829.64	1072.88
829.96	1074.26
830.28	1075.38
830.59	1075.36
830.91	1075.03
831.23	1076.04
831.55	1078.73
831.87	1075.27
832.19	1076.97
832.50	1078.87
832.82	1080.04
833.14	1082.24
833.46	1083.55
833.78	1081.07
834.09	1078.19
834.41	1078.73
834.73	1077.63
835.05	1080.02
835.36	1083.55
835.68	1083.81
836.00	1084.93
836.32	1084.63
836.63	1078.28
836.95	1076.18
837.27	1078.40
837.59	1074.89
837.90	1074.91
838.22	1079.41
838.54	1076.37
838.85	1073.95
839.17	1074.28
839.49	1076.06
839.80	1074.26
840.12	1072.76
840.44	1073.39
840.76	1070.80
841.07	1069.37
841.39	1072.78
841.71	1075.03
842.02	1074.28
842.34	1080.20
842.65	1082.94
842.97	1080.37
843.29	1081.68
843.60	1084.72
843.92	1077.47
844.24	1073.42
844.55	1073.58
844.87	1074.42
845.18	1074.21
845.50	1078.03
845.82	1077.40
846.13	1079.43
846.45	1074.56
846.76	1073.23
847.08	1072.39
847.40	1074.38
847.71	1073.98
848.03	1078.14
848.34	1079.17
848.66	1081.30
848.97	1079.43
849.29	1075.34
849.60	1071.47
849.92	1070.23
850.24	1069.62
850.55	1071.15
850.87	1074.80
851.18	1078.17
851.50	1079.85
851.81	1078.33
852.13	1077.84
852.44	1076.48
852.76	1075.97
853.07	1073.44
853.39	1074.66
853.70	1074.35
854.01	1075.52
854.33	1075.01
854.64	1075.50
854.96	1075.03
855.27	1076.20
855.59	1074.66
855.90	1079.57
856.22	1081.54
856.53	1081.61
856.84	1080.56
857.16	1080.86
857.47	1076.27
857.79	1076.08
858.10	1076.46
858.41	1075.31
858.73	1076.76
859.04	1077.25
859.36	1074.80
859.67	1075.64
859.98	1080.84
860.30	1080.39
860.61	1081.47
860.92	1081.73
861.24	1082.12
861.55	1077.72
861.87	1075.41
862.18	1075.90
862.49	1074.00
862.81	1071.43
863.12	1069.65
863.43	1072.29
863.74	1070.87
864.06	1072.85
864.37	1075.94
864.68	1078.24
865.00	1077.44
865.31	1077.07
865.62	1079.27
865.94	1077.93
866.25	1078.47
866.56	1079.08
866.87	1079.36
867.19	1079.13
867.50	1077.47
867.81	1076.08
868.12	1075.50
868.44	1076.44
868.75	1074.91
869.06	1073.44
869.37	1075.38
869.68	1074.63
870.00	1074.91
870.31	1075.15
870.62	1077.23
870.93	1076.15
871.24	1077.72
871.56	1080.02
871.87	1078.99
872.18	1079.24
872.49	1079.64
872.80	1076.74
873.12	1072.69
873.43	1074.17
873.74	1074.28
874.05	1074.75
874.36	1077.70
874.67	1077.61
874.98	1073.32
875.29	1075.38
875.61	1076.76
875.92	1074.35
876.23	1076.18
876.54	1080.74
876.85	1082.12
877.16	1081.68
877.47	1083.08
877.78	1080.25
878.09	1078.26
878.40	1074.45
878.72	1073.44
879.03	1071.87
879.34	1075.64
879.65	1078.03
879.96	1078.66
880.27	1080.53
880.58	1083.79
880.89	1083.69
881.20	1084.86
881.51	1087.32
881.82	1085.63
882.13	1084.28
882.44	1082.66
882.75	1083.86
883.06	1083.79
883.37	1084.23
883.68	1087.51
883.99	1085.94
884.30	1082.97
884.61	1081.28
884.92	1082.31
885.23	1078.61
885.54	1077.82
885.85	1078.17
886.16	1076.11
886.47	1076.93
886.78	1075.01
887.08	1078.05
887.39	1076.93
887.70	1079.62
888.01	1078.24
888.32	1080.18
888.63	1080.25
888.94	1080.79
889.25	1079.27
889.56	1078.99
889.87	1078.82
890.17	1077.58
890.48	1081.02
890.79	1083.67
891.10	1080.23
891.41	1082.26
891.72	1082.66
892.03	1076.67
892.34	1077.44
892.64	1080.86
892.95	1076.88
893.26	1077.37
893.57	1077.79
893.88	1073.91
894.18	1073.46
894.49	1076.11
894.80	1076.04
895.11	1077.07
895.42	1076.69
895.72	1075.17
896.03	1071.75
896.34	1069.91
896.65	1071.85
896.96	1078.45
897.26	1079.88
897.57	1084.00
897.88	1086.92
898.19	1083.93
898.49	1078.87
898.80	1079.17
899.11	1078.43
899.41	1075.41
899.72	1078.50
900.03	1078.80
900.34	1080.09
900.64	1076.95
900.95	1077.00
901.26	1077.04
901.56	1077.21
901.87	1077.40
902.18	1078.00
902.48	1081.00
902.79	1079.69
903.10	1079.20
903.40	1076.95
903.71	1078.40
904.02	1077.89
904.32	1079.27
904.63	1077.82
904.94	1075.41
905.24	1075.94
905.55	1074.89
905.85	1074.26
906.16	1075.62
906.47	1076.51
906.77	1076.53
907.08	1077.72
907.38	1076.13
907.69	1077.98
908.00	1081.30
908.30	1082.15
908.61	1081.61
908.91	1085.00
909.22	1083.32
909.52	1081.19
909.83	1078.31
910.14	1076.41
910.44	1074.07
910.75	1074.61
911.05	1071.82
911.36	1072.25
911.66	1074.47
911.97	1072.64
912.27	1072.85
912.58	1074.00
912.88	1075.85
913.19	1073.16
913.49	1072.11
913.80	1069.62
914.10	1071.75
914.41	1069.70
914.71	1069.55
915.01	1070.02
915.32	1070.96
915.62	1070.70
915.93	1070.30
916.23	1074.66
916.54	1077.72
916.84	1079.99
917.15	1078.21
917.45	1080.46
917.75	1079.22
918.06	1077.93
918.36	1074.84
918.67	1079.06
918.97	1075.01
919.27	1072.95
919.58	1072.39
919.88	1071.66
920.18	1068.88
920.49	1071.43
920.79	1071.22
921.10	1068.20
921.40	1067.75
921.70	1066.35
922.01	1064.71
922.31	1063.45
922.61	1066.18
922.92	1069.86
923.22	1075.01
923.52	1077.63
923.82	1082.90
924.13	1082.15
924.43	1082.43
924.73	1079.99
925.04	1079.95
925.34	1078.19
925.64	1080.72
925.94	1078.26
926.25	1077.47
926.55	1078.52
926.85	1078.10
927.15	1073.28
927.46	1073.16
927.76	1072.97
928.06	1073.30
928.36	1073.16
928.67	1076.25
928.97	1077.63
929.27	1078.17
929.57	1078.45
929.87	1077.28
930.18	1078.52
930.48	1075.73
930.78	1073.72
931.08	1072.43
931.38	1073.51
931.69	1074.49
931.99	1075.99
932.29	1079.15
932.59	1079.08
932.89	1080.32
933.19	1079.76
933.49	1080.25
933.80	1081.12
934.10	1082.83
934.40	1078.43
934.70	1076.62
935.00	1076.11
935.30	1074.89
935.60	1074.77
935.90	1078.17
936.20	1078.71
936.50	1081.87
936.81	1078.43
937.11	1077.07
937.41	1075.48
937.71	1075.62
938.01	1078.40
938.31	1081.70
938.61	1078.21
938.91	1077.77
939.21	1076.79
939.51	1068.20
939.81	1068.20
940.11	1069.84
940.41	1070.09
940.71	1071.64
941.01	1073.42
941.31	1072.04
941.61	1071.97
941.91	1070.70
942.21	1072.50
942.51	1071.22
942.81	1072.88
943.11	1072.76
943.41	1074.14
943.71	1072.62
944.01	1075.13
944.31	1075.22
944.61	1079.15
944.90	1079.99
945.20	1078.00
945.50	1077.82
945.80	1078.54
946.10	1078.59
946.40	1078.36
946.70	1078.31
947.00	1077.58
947.30	1076.67
947.60	1076.53
947.89	1075.05
948.19	1073.74
948.49	1075.05
948.79	1072.92
949.09	1072.46
949.39	1073.51
949.69	1076.18
949.98	1075.62
950.28	1076.34
950.58	1077.21
950.88	1078.54
951.18	1080.23
951.48	1080.25
951.77	1079.01
952.07	1074.24
952.37	1074.24
952.67	1073.84
952.97	1075.97
953.26	1075.78
953.56	1079.53
953.86	1079.53
954.16	1079.55
954.45	1079.31
954.75	1081.09
955.05	1078.12
955.35	1075.94
955.64	1076.46
955.94	1075.71
956.24	1075.36
956.54	1074.87
956.83	1075.41
957.13	1074.75
957.43	1077.18
957.72	1076.72
958.02	1079.03
958.32	1078.96
958.61	1079.10
958.91	1075.52
959.21	1074.68
959.50	1074.61
959.80	1074.10
960.10	1071.57
960.39	1071.08
960.69	1072.32
960.99	1073.44
961.28	1076.60
961.58	1075.97
961.87	1075.57
962.17	1078.05
962.47	1074.07
962.76	1072.15
963.06	1075.57
963.36	1076.39
963.65	1075.43
963.95	1079.38
964.24	1078.05
964.54	1077.25
964.83	1078.54
965.13	1078.52
965.42	1076.86
965.72	1078.14
966.02	1077.47
966.31	1074.07
966.61	1071.26
966.90	1071.92
967.20	1073.00
967.49	1071.73
967.79	1074.96
968.08	1078.00
968.38	1078.80
968.67	1076.76
968.97	1077.40
969.26	1076.79
969.56	1075.01
969.85	1076.37
970.15	1078.05
970.44	1082.33
970.74	1082.59
971.03	1082.57
971.32	1079.88
971.62	1081.21
971.91	1078.68
972.21	1079.27
972.50	1078.33
972.80	1079.20
973.09	1077.56
973.38	1076.79
973.68	1077.47
973.97	1078.78
974.27	1079.90
974.56	1080.58
974.85	1079.76
975.15	1076.44
975.44	1077.58
975.73	1076.25
976.03	1075.24
976.32	1075.76
976.61	1080.02
976.91	1079.15
977.20	1080.46
977.49	1083.36
977.79	1082.73
978.08	1081.16
978.37	1078.89
978.67	1079.48
978.96	1074.47
979.25	1072.69
979.55	1069.39
979.84	1070.19
980.13	1068.55
980.42	1070.68
980.72	1072.62
981.01	1073.91
981.30	1075.36
981.59	1072.62
981.89	1072.15
982.18	1073.58
982.47	1071.31
982.76	1071.71
983.06	1073.63
983.35	1075.34
983.64	1077.25
983.93	1081.98
984.22	1083.22
984.52	1085.87
984.81	1082.08
985.10	1080.16
985.39	1077.65
985.68	1077.30
985.97	1071.54
986.27	1074.70
986.56	1073.23
986.85	1073.37
987.14	1068.76
987.43	1068.31
987.72	1067.57
988.01	1067.61
988.31	1070.02
988.60	1073.44
988.89	1076.20
989.18	1077.40
989.47	1077.86
989.76	1079.29
990.05	1078.78
990.34	1079.67
990.63	1079.99
990.92	1077.09
991.21	1076.60
991.51	1077.51
991.80	1078.68
992.09	1079.29
992.38	1082.87
992.67	1080.98
992.96	1081.37
993.25	1081.91
993.54	1077.44
993.83	1073.88
994.12	1074.28
994.41	1071.03
994.70	1072.76
994.99	1076.81
995.28	1075.69
995.57	1076.20
995.86	1076.48
996.15	1071.71
996.44	1067.64
996.73	1071.97
997.02	1069.77
997.31	1069.37
997.59	1068.10
997.88	1073.67
998.17	1073.72
998.46	1074.87
998.75	1076.76
999.04	1077.56
999.33	1073.81
999.62	1073.16
999.91	1074.24
1000.20	1075.64
1000.49	1076.46
1000.77	1075.59
1001.06	1076.46
1001.35	1074.94
1001.64	1075.41
1001.93	1076.20
1002.22	1076.13
1002.51	1076.25
1002.79	1074.73
1003.08	1070.65
1003.37	1070.21
1003.66	1073.18
1003.95	1074.07
1004.23	1076.86
1004.52	1079.41
1004.81	1079.15
1005.10	1077.79
1005.39	1075.03
1005.67	1073.32
1005.96	1071.97
1006.25	1073.77
1006.54	1074.45
1006.83	1077.68
1007.11	1078.21
1007.40	1076.79
1007.69	1075.38
1007.97	1071.87
1008.26	1070.35
1008.55	1070.42
1008.84	1072.46
1009.12	1074.45
1009.41	1073.81
1009.70	1075.03
1009.98	1073.72
1010.27	1072.34
1010.56	1070.58
1010.85	1073.72
1011.13	1071.71
1011.42	1075.45
1011.71	1081.16
1011.99	1082.50
1012.28	1084.11
1012.56	1083.55
1012.85	1080.30
1013.14	1078.52
1013.42	1078.19
1013.71	1076.97
1014.00	1077.11
1014.28	1076.44
1014.57	1074.05
1014.85	1074.26
1015.14	1071.45
1015.43	1069.39
1015.71	1070.14
1016.00	1071.85
1016.28	1070.75
1016.57	1075.05
1016.85	1077.54
1017.14	1078.43
1017.43	1077.11
1017.71	1076.27
1018.00	1077.56
1018.28	1079.01
1018.57	1076.18
1018.85	1074.33
1019.14	1073.63
1019.42	1068.88
1019.71	1067.99
1019.99	1070.98
1020.28	1075.17
1020.56	1076.81
1020.85	1077.98
1021.13	1078.31
1021.42	1075.43
1021.70	1072.64
1021.99	1073.32
1022.27	1076.04
1022.55	1079.10
1022.84	1085.31
>>>>>End Processed Spectral Data<<<<<
