SpectraSuite Data File
++++++++++++++++++++++++++++++++++++
Date: Mon Aug 26 10:22:16 PDT 2019
User: corrico
Dark Spectrum Present: No
Reference Spectrum Present: No
Number of Sampled Component Spectra: 1
Spectrometers: USB2+H06089
Integration Time (usec): 2000 (USB2+H06089)
Spectra Averaged: 20 (USB2+H06089)
Boxcar Smoothing: 2 (USB2+H06089)
Correct for Electrical Dark: No (USB2+H06089)
Strobe/Lamp Enabled: No (USB2+H06089)
Correct for Detector Non-linearity: No (USB2+H06089)
Correct for Stray Light: No (USB2+H06089)
Number of Pixels in Processed Spectrum: 2048
>>>>>Begin Processed Spectral Data<<<<<
339.70	1025.39
340.07	1025.39
340.45	989.20
340.82	967.95
341.19	943.19
341.57	919.74
341.94	910.98
342.31	903.94
342.69	895.49
343.06	895.11
343.43	892.75
343.81	893.17
344.18	899.28
344.55	904.06
344.93	909.70
345.30	917.28
345.67	925.31
346.04	933.10
346.42	944.45
346.79	954.47
347.16	961.96
347.54	971.67
347.91	976.82
348.28	986.65
348.65	994.77
349.03	1005.45
349.40	1012.38
349.77	1021.50
350.14	1027.12
350.52	1032.55
350.89	1038.92
351.26	1047.04
351.63	1054.04
352.01	1058.93
352.38	1063.21
352.75	1065.08
353.12	1064.36
353.50	1064.05
353.87	1067.85
354.24	1071.12
354.61	1074.82
354.98	1076.60
355.36	1081.70
355.73	1083.67
356.10	1085.59
356.47	1082.15
356.84	1084.16
357.22	1085.94
357.59	1084.93
357.96	1081.58
358.33	1086.10
358.70	1086.78
359.08	1082.87
359.45	1082.22
359.82	1084.07
360.19	1085.07
360.56	1081.58
360.94	1083.18
361.31	1082.33
361.68	1080.65
362.05	1077.91
362.42	1079.43
362.79	1078.92
363.16	1078.19
363.54	1076.65
363.91	1078.99
364.28	1078.78
364.65	1077.93
365.02	1078.17
365.39	1079.20
365.76	1075.80
366.14	1075.34
366.51	1073.18
366.88	1073.88
367.25	1071.87
367.62	1070.49
367.99	1070.09
368.36	1070.42
368.73	1069.79
369.10	1071.92
369.48	1073.88
369.85	1074.52
370.22	1075.13
370.59	1074.56
370.96	1076.48
371.33	1074.80
371.70	1071.90
372.07	1072.22
372.44	1073.93
372.81	1073.02
373.18	1075.80
373.55	1075.38
373.93	1076.95
374.30	1075.59
374.67	1075.80
375.04	1073.28
375.41	1077.96
375.78	1077.02
376.15	1076.01
376.52	1075.92
376.89	1077.18
377.26	1074.68
377.63	1074.52
378.00	1075.50
378.37	1074.00
378.74	1073.49
379.11	1071.97
379.48	1071.71
379.85	1072.97
380.22	1073.49
380.59	1073.42
380.96	1074.14
381.33	1075.36
381.70	1073.16
382.07	1071.57
382.44	1071.15
382.81	1072.83
383.18	1074.59
383.55	1076.81
383.92	1074.91
384.29	1079.36
384.66	1078.66
385.03	1076.39
385.40	1078.61
385.77	1085.14
386.14	1083.86
386.51	1084.28
386.88	1086.13
387.25	1084.00
387.62	1079.22
387.99	1079.29
388.36	1080.02
388.73	1078.21
389.10	1076.48
389.46	1079.53
389.83	1080.63
390.20	1080.53
390.57	1081.77
390.94	1085.03
391.31	1088.42
391.68	1085.63
392.05	1087.60
392.42	1088.09
392.79	1088.04
393.16	1086.10
393.53	1088.72
393.89	1086.83
394.26	1086.90
394.63	1086.38
395.00	1086.97
395.37	1086.97
395.74	1089.75
396.11	1088.93
396.48	1092.47
396.84	1092.56
397.21	1093.05
397.58	1092.73
397.95	1095.75
398.32	1094.18
398.69	1092.66
399.06	1092.45
399.42	1089.73
399.79	1088.23
400.16	1086.24
400.53	1087.79
400.90	1084.98
401.27	1087.13
401.64	1087.46
402.00	1088.47
402.37	1087.67
402.74	1088.37
403.11	1090.78
403.48	1090.57
403.84	1090.48
404.21	1091.20
404.58	1095.37
404.95	1094.27
405.32	1092.56
405.68	1093.97
406.05	1092.59
406.42	1090.34
406.79	1089.43
407.16	1089.05
407.52	1089.57
407.89	1091.79
408.26	1091.34
408.63	1091.20
408.99	1092.45
409.36	1089.57
409.73	1089.40
410.10	1089.50
410.47	1091.06
410.83	1091.98
411.20	1092.87
411.57	1093.50
411.94	1094.67
412.30	1095.79
412.67	1095.53
413.04	1093.17
413.40	1094.50
413.77	1095.39
414.14	1094.06
414.51	1097.34
414.87	1104.05
415.24	1101.03
415.61	1101.64
415.97	1104.55
416.34	1104.71
416.71	1102.67
417.08	1104.62
417.44	1104.78
417.81	1104.17
418.18	1105.27
418.54	1108.13
418.91	1107.00
419.28	1105.15
419.64	1105.11
420.01	1105.90
420.38	1107.49
420.74	1113.84
421.11	1119.34
421.48	1124.04
421.84	1124.91
422.21	1124.88
422.58	1124.49
422.94	1125.10
423.31	1126.76
423.68	1128.93
424.04	1129.31
424.41	1132.68
424.77	1135.30
425.14	1134.39
425.51	1136.10
425.87	1141.08
426.24	1145.20
426.61	1151.17
426.97	1159.81
427.34	1164.86
427.70	1171.63
428.07	1178.23
428.44	1181.71
428.80	1189.16
429.17	1197.84
429.53	1209.57
429.90	1219.00
430.27	1230.16
430.63	1238.21
431.00	1249.26
431.36	1254.62
431.73	1264.24
432.09	1275.19
432.46	1289.40
432.83	1303.07
433.19	1320.02
433.56	1336.56
433.92	1356.50
434.29	1380.19
434.65	1403.57
435.02	1426.51
435.38	1453.85
435.75	1481.89
436.11	1508.10
436.48	1536.56
436.84	1571.34
437.21	1602.99
437.57	1633.79
437.94	1670.93
438.30	1712.80
438.67	1754.89
439.03	1805.93
439.40	1862.62
439.76	1920.46
440.13	1977.57
440.49	2039.54
440.86	2102.01
441.22	2167.87
441.59	2237.74
441.95	2314.74
442.32	2394.74
442.68	2488.50
443.05	2579.95
443.41	2678.09
443.78	2779.20
444.14	2886.93
444.51	2990.71
444.87	3125.60
445.24	3256.57
445.60	3398.60
445.96	3546.87
446.33	3709.77
446.69	3861.56
447.06	4032.70
447.42	4212.45
447.79	4393.40
448.15	4608.80
448.51	4839.32
448.88	5091.27
449.24	5328.44
449.61	5598.63
449.97	5854.99
450.33	6130.73
450.70	6381.10
451.06	6688.31
451.43	6989.59
451.79	7343.57
452.15	7716.77
452.52	8157.02
452.88	8621.22
453.24	9144.36
453.61	9699.77
453.97	10260.35
454.34	10784.84
454.70	11400.63
455.06	12013.06
455.43	12618.23
455.79	13186.13
456.15	13861.33
456.52	14485.04
456.88	15212.08
457.24	15888.87
457.61	16707.00
457.97	17462.85
458.33	18220.32
458.70	18957.33
459.06	19713.49
459.42	20503.70
459.79	21239.66
460.15	22097.72
460.51	22916.23
460.88	23768.51
461.24	24522.24
461.60	25434.91
461.96	26256.27
462.33	27085.08
462.69	27888.33
463.05	28745.36
463.42	29487.94
463.78	30164.52
464.14	30700.76
464.50	31274.64
464.87	31730.10
465.23	32053.38
465.59	32384.00
465.95	32700.40
466.32	32962.82
466.68	33170.70
467.04	33301.38
467.40	33434.08
467.77	33577.61
468.13	33567.26
468.49	33515.84
468.85	33471.23
469.22	33312.82
469.58	32980.89
469.94	32743.35
470.30	32437.67
470.66	32018.69
471.03	31458.53
471.39	31092.66
471.75	30503.62
472.11	29949.40
472.47	29626.92
472.84	29341.03
473.20	28877.18
473.56	28599.15
473.92	28170.88
474.28	27667.50
474.65	27187.83
475.01	26724.61
475.37	26185.56
475.73	25762.79
476.09	25279.47
476.45	24799.73
476.81	24332.63
477.18	23826.12
477.54	23374.18
477.90	23008.78
478.26	22580.79
478.62	22203.59
478.98	21904.35
479.34	21577.40
479.71	21174.90
480.07	20830.65
480.43	20511.00
480.79	20129.12
481.15	19790.89
481.51	19470.57
481.87	19223.99
482.23	18918.53
482.59	18671.60
482.96	18393.50
483.32	18116.85
483.68	17746.18
484.04	17424.02
484.40	17063.54
484.76	16712.10
485.12	16350.70
485.48	16047.16
485.84	15706.28
486.20	15364.26
486.56	15015.85
486.92	14732.57
487.28	14406.98
487.64	14075.49
488.00	13774.92
488.37	13451.22
488.73	13098.25
489.09	12751.89
489.45	12450.74
489.81	12134.37
490.17	11866.82
490.53	11615.45
490.89	11327.44
491.25	11038.36
491.61	10753.92
491.97	10444.87
492.33	10116.97
492.69	9826.06
493.05	9534.06
493.41	9251.13
493.77	8984.36
494.13	8728.51
494.49	8487.18
494.85	8249.43
495.21	8020.92
495.57	7806.41
495.93	7595.88
496.29	7397.19
496.64	7214.37
497.00	7033.64
497.36	6842.16
497.72	6664.77
498.08	6484.62
498.44	6311.28
498.80	6147.91
499.16	5994.84
499.52	5842.47
499.88	5716.76
500.24	5586.02
500.60	5457.38
500.96	5338.60
501.32	5228.50
501.68	5113.88
502.03	4994.33
502.39	4875.78
502.75	4741.74
503.11	4615.89
503.47	4491.21
503.83	4369.87
504.19	4256.01
504.55	4155.36
504.91	4065.00
505.26	3978.42
505.62	3900.69
505.98	3817.11
506.34	3733.97
506.70	3642.13
507.06	3554.64
507.42	3464.91
507.78	3386.19
508.13	3313.92
508.49	3243.19
508.85	3172.67
509.21	3106.78
509.57	3038.79
509.93	2970.70
510.28	2904.16
510.64	2845.83
511.00	2785.82
511.36	2727.57
511.72	2673.66
512.07	2626.06
512.43	2573.09
512.79	2522.49
513.15	2477.36
513.51	2426.32
513.86	2379.32
514.22	2338.22
514.58	2300.28
514.94	2262.55
515.30	2233.99
515.65	2195.84
516.01	2168.16
516.37	2135.83
516.73	2106.34
517.08	2076.41
517.44	2046.49
517.80	2016.39
518.16	1992.57
518.51	1966.05
518.87	1939.02
519.23	1915.78
519.59	1893.94
519.94	1866.55
520.30	1841.84
520.66	1817.15
521.01	1798.28
521.37	1773.70
521.73	1757.34
522.09	1739.81
522.44	1722.89
522.80	1703.37
523.16	1683.55
523.51	1662.58
523.87	1644.72
524.23	1625.81
524.58	1602.75
524.94	1585.83
525.30	1565.84
525.65	1547.94
526.01	1531.72
526.37	1521.28
526.72	1506.74
527.08	1497.90
527.44	1487.39
527.79	1475.59
528.15	1465.32
528.51	1453.47
528.86	1441.63
529.22	1426.28
529.58	1411.95
529.93	1400.41
530.29	1391.64
530.65	1380.28
531.00	1375.74
531.36	1368.75
531.71	1360.18
532.07	1349.88
532.43	1343.14
532.78	1333.31
533.14	1326.50
533.49	1320.51
533.85	1317.04
534.21	1309.93
534.56	1304.05
534.92	1299.07
535.27	1293.24
535.63	1287.18
535.98	1281.23
536.34	1273.98
536.69	1267.63
537.05	1261.10
537.41	1253.82
537.76	1251.23
538.12	1246.08
538.47	1240.27
538.83	1237.02
539.18	1232.95
539.54	1226.44
539.89	1225.25
540.25	1220.66
540.60	1216.87
540.96	1213.61
541.31	1211.58
541.67	1207.90
542.02	1208.18
542.38	1203.36
542.73	1202.52
543.09	1197.25
543.44	1196.01
543.80	1190.84
544.15	1189.95
544.51	1185.90
544.86	1186.89
545.22	1184.17
545.57	1182.60
545.93	1177.50
546.28	1175.60
546.64	1173.03
546.99	1170.34
547.35	1167.01
547.70	1165.19
548.05	1161.23
548.41	1161.51
548.76	1157.63
549.12	1159.15
549.47	1158.12
549.83	1157.61
550.18	1152.83
550.53	1149.20
550.89	1145.15
551.24	1144.59
551.60	1143.23
551.95	1140.89
552.30	1140.78
552.66	1137.80
553.01	1133.10
553.37	1131.63
553.72	1129.33
554.07	1129.99
554.43	1130.74
554.78	1131.06
555.13	1131.09
555.49	1133.17
555.84	1132.82
556.19	1129.36
556.55	1128.70
556.90	1123.69
557.26	1119.57
557.61	1117.02
557.96	1119.95
558.32	1119.88
558.67	1122.33
559.02	1120.39
559.37	1118.26
559.73	1116.01
560.08	1115.36
560.43	1114.12
560.79	1113.49
561.14	1111.94
561.49	1110.82
561.85	1106.46
562.20	1103.68
562.55	1103.94
562.90	1104.64
563.26	1107.73
563.61	1110.79
563.96	1111.61
564.32	1113.42
564.67	1113.16
565.02	1106.32
565.37	1104.57
565.73	1100.57
566.08	1100.66
566.43	1100.15
566.78	1099.84
567.14	1096.00
567.49	1100.36
567.84	1100.89
568.19	1100.52
568.54	1103.98
568.90	1107.00
569.25	1103.96
569.60	1100.99
569.95	1100.71
570.31	1097.17
570.66	1097.06
571.01	1094.93
571.36	1096.66
571.71	1095.67
572.06	1095.21
572.42	1095.58
572.77	1095.00
573.12	1094.32
573.47	1094.60
573.82	1094.55
574.18	1094.39
574.53	1096.49
574.88	1092.70
575.23	1090.10
575.58	1093.78
575.93	1093.15
576.28	1094.15
576.64	1094.48
576.99	1095.21
577.34	1092.82
577.69	1091.98
578.04	1090.69
578.39	1092.35
578.74	1093.19
579.09	1090.57
579.44	1091.60
579.80	1090.15
580.15	1088.68
580.50	1090.95
580.85	1092.07
581.20	1089.85
581.55	1089.96
581.90	1086.78
582.25	1082.47
582.60	1085.61
582.95	1087.37
583.30	1089.68
583.65	1091.67
584.00	1094.83
584.35	1090.99
584.71	1092.09
585.06	1091.81
585.41	1095.49
585.76	1094.04
586.11	1093.03
586.46	1091.46
586.81	1091.70
587.16	1088.82
587.51	1085.61
587.86	1085.66
588.21	1086.85
588.56	1085.75
588.91	1085.82
589.26	1088.21
589.61	1090.69
589.96	1088.07
590.31	1087.18
590.66	1088.72
591.01	1090.74
591.36	1092.75
591.71	1095.23
592.06	1098.32
592.41	1094.20
592.76	1092.09
593.10	1090.85
593.45	1088.12
593.80	1084.02
594.15	1085.87
594.50	1086.03
594.85	1087.11
595.20	1089.33
595.55	1088.37
595.90	1089.38
596.25	1088.09
596.60	1084.18
596.95	1082.92
597.30	1081.23
597.64	1090.55
597.99	1091.86
598.34	1096.63
598.69	1096.45
599.04	1101.20
599.39	1090.57
599.74	1091.13
600.09	1086.78
600.44	1088.33
600.78	1086.43
601.13	1087.55
601.48	1087.74
601.83	1087.06
602.18	1084.11
602.53	1085.87
602.88	1084.86
603.22	1087.86
603.57	1087.41
603.92	1087.46
604.27	1084.84
604.62	1084.65
604.97	1077.70
605.31	1079.27
605.66	1080.34
606.01	1084.74
606.36	1084.84
606.71	1086.43
607.05	1083.71
607.40	1082.31
607.75	1080.34
608.10	1081.82
608.44	1081.61
608.79	1084.67
609.14	1086.64
609.49	1086.48
609.84	1086.57
610.18	1089.26
610.53	1090.57
610.88	1088.65
611.23	1087.30
611.57	1086.10
611.92	1083.76
612.27	1082.01
612.62	1080.63
612.96	1082.80
613.31	1084.28
613.66	1083.57
614.00	1080.98
614.35	1084.23
614.70	1084.35
615.05	1084.81
615.39	1088.33
615.74	1088.89
616.09	1088.37
616.43	1087.02
616.78	1084.51
617.13	1081.28
617.47	1085.77
617.82	1085.66
618.17	1086.01
618.51	1087.69
618.86	1087.27
619.21	1086.27
619.55	1084.89
619.90	1086.06
620.25	1083.71
620.59	1085.42
620.94	1084.09
621.29	1086.99
621.63	1084.39
621.98	1083.06
622.32	1080.98
622.67	1080.63
623.02	1080.02
623.36	1081.87
623.71	1083.36
624.05	1087.18
624.40	1087.11
624.75	1084.23
625.09	1082.57
625.44	1085.03
625.78	1081.80
626.13	1084.77
626.48	1084.84
626.82	1085.10
627.17	1084.21
627.51	1086.59
627.86	1085.38
628.20	1088.28
628.55	1087.53
628.89	1084.72
629.24	1085.26
629.58	1080.65
629.93	1080.13
630.28	1081.47
630.62	1084.98
630.97	1083.76
631.31	1087.32
631.66	1087.90
632.00	1086.90
632.35	1084.81
632.69	1083.27
633.04	1082.22
633.38	1082.12
633.73	1083.39
634.07	1082.94
634.42	1085.73
634.76	1085.26
635.11	1085.31
635.45	1083.08
635.79	1085.61
636.14	1087.32
636.48	1089.47
636.83	1089.68
637.17	1093.26
637.52	1091.25
637.86	1087.62
638.21	1088.37
638.55	1085.66
638.89	1085.94
639.24	1085.14
639.58	1088.30
639.93	1085.35
640.27	1088.51
640.61	1086.15
640.96	1083.71
641.30	1080.44
641.65	1079.78
641.99	1077.04
642.33	1075.34
642.68	1079.20
643.02	1077.84
643.37	1078.78
643.71	1078.85
644.05	1080.27
644.40	1080.34
644.74	1080.39
645.08	1080.11
645.43	1078.94
645.77	1077.44
646.11	1080.44
646.46	1081.73
646.80	1087.44
647.14	1088.00
647.49	1084.58
647.83	1081.98
648.17	1081.75
648.52	1076.72
648.86	1077.47
649.20	1084.00
649.55	1083.79
649.89	1084.81
650.23	1084.46
650.57	1080.74
650.92	1077.00
651.26	1074.49
651.60	1072.53
651.95	1073.11
652.29	1078.03
652.63	1079.69
652.97	1082.29
653.32	1083.88
653.66	1082.64
654.00	1080.63
654.34	1081.28
654.69	1081.89
655.03	1082.10
655.37	1081.68
655.71	1084.98
656.05	1084.93
656.40	1082.26
656.74	1079.15
657.08	1080.25
657.42	1078.43
657.76	1077.00
658.11	1079.20
658.45	1080.37
658.79	1083.83
659.13	1082.43
659.47	1081.77
659.82	1079.64
660.16	1083.97
660.50	1082.17
660.84	1082.19
661.18	1082.03
661.52	1080.67
661.87	1076.20
662.21	1076.44
662.55	1076.48
662.89	1080.02
663.23	1081.07
663.57	1081.07
663.91	1081.23
664.25	1083.43
664.60	1080.58
664.94	1081.49
665.28	1081.82
665.62	1081.12
665.96	1079.76
666.30	1082.57
666.64	1082.99
666.98	1086.08
667.32	1084.32
667.66	1084.37
668.01	1083.06
668.35	1083.74
668.69	1081.33
669.03	1081.89
669.37	1079.92
669.71	1082.36
670.05	1082.22
670.39	1081.37
670.73	1082.52
671.07	1084.46
671.41	1080.91
671.75	1079.64
672.09	1078.96
672.43	1077.11
672.77	1077.68
673.11	1075.78
673.45	1078.82
673.79	1081.77
674.13	1081.35
674.47	1081.19
674.81	1085.12
675.15	1083.53
675.49	1080.30
675.83	1080.77
676.17	1081.87
676.51	1078.14
676.85	1077.11
677.19	1078.47
677.53	1079.46
677.87	1076.20
678.21	1079.27
678.55	1080.93
678.89	1083.74
679.23	1085.52
679.57	1086.55
679.90	1084.42
680.24	1084.00
680.58	1079.20
680.92	1075.52
681.26	1076.15
681.60	1077.51
681.94	1076.65
682.28	1078.03
682.62	1077.02
682.96	1077.79
683.29	1076.04
683.63	1074.49
683.97	1072.69
684.31	1072.06
684.65	1069.77
684.99	1074.63
685.33	1074.31
685.67	1077.33
686.00	1083.27
686.34	1085.91
686.68	1085.24
687.02	1084.56
687.36	1085.00
687.70	1082.01
688.03	1079.57
688.37	1079.03
688.71	1078.45
689.05	1078.96
689.39	1080.70
689.72	1081.21
690.06	1079.97
690.40	1082.26
690.74	1082.24
691.08	1079.71
691.41	1080.13
691.75	1080.30
692.09	1082.38
692.43	1082.17
692.76	1082.80
693.10	1082.54
693.44	1081.12
693.78	1076.83
694.11	1077.28
694.45	1077.51
694.79	1075.80
695.13	1075.45
695.46	1077.82
695.80	1077.77
696.14	1079.03
696.48	1076.60
696.81	1076.51
697.15	1074.89
697.49	1070.89
697.82	1070.09
698.16	1074.38
698.50	1075.38
698.83	1075.78
699.17	1077.00
699.51	1076.01
699.84	1077.47
700.18	1076.83
700.52	1075.57
700.85	1077.79
701.19	1078.57
701.53	1077.58
701.86	1078.10
702.20	1080.18
702.54	1078.45
702.87	1079.64
703.21	1079.22
703.55	1078.96
703.88	1082.31
704.22	1083.46
704.55	1079.97
704.89	1082.01
705.23	1082.52
705.56	1082.83
705.90	1085.99
706.23	1087.76
706.57	1085.70
706.91	1083.46
707.24	1080.91
707.58	1078.78
707.91	1079.95
708.25	1081.16
708.58	1086.48
708.92	1086.73
709.26	1083.69
709.59	1082.17
709.93	1082.15
710.26	1080.23
710.60	1079.36
710.93	1081.87
711.27	1080.63
711.60	1080.84
711.94	1077.30
712.27	1078.17
712.61	1077.75
712.94	1078.45
713.28	1078.00
713.61	1083.36
713.95	1082.59
714.28	1084.37
714.62	1082.64
714.95	1080.84
715.29	1078.54
715.62	1077.54
715.96	1075.94
716.29	1078.31
716.63	1077.93
716.96	1076.39
717.29	1075.52
717.63	1075.17
717.96	1076.88
718.30	1079.78
718.63	1081.40
718.97	1083.06
719.30	1082.45
719.63	1080.60
719.97	1080.48
720.30	1081.98
720.64	1083.95
720.97	1083.32
721.30	1085.38
721.64	1084.11
721.97	1080.65
722.31	1074.21
722.64	1078.64
722.97	1076.53
723.31	1077.14
723.64	1077.68
723.97	1078.96
724.31	1073.49
724.64	1071.99
724.98	1068.71
725.31	1071.43
725.64	1072.78
725.98	1077.51
726.31	1076.62
726.64	1076.72
726.97	1074.70
727.31	1078.17
727.64	1073.86
727.97	1076.62
728.31	1077.77
728.64	1076.37
728.97	1075.59
729.31	1078.57
729.64	1080.39
729.97	1083.69
730.30	1084.56
730.64	1084.46
730.97	1080.32
731.30	1078.24
731.63	1075.08
731.97	1075.73
732.30	1074.70
732.63	1078.12
732.96	1078.17
733.30	1080.25
733.63	1080.67
733.96	1080.72
734.29	1082.17
734.63	1082.80
734.96	1080.98
735.29	1080.32
735.62	1081.66
735.95	1080.30
736.29	1082.31
736.62	1082.61
736.95	1081.49
737.28	1079.53
737.61	1077.23
737.94	1073.63
738.28	1075.97
738.61	1081.07
738.94	1082.12
739.27	1084.74
739.60	1088.21
739.93	1087.09
740.27	1082.15
740.60	1082.50
740.93	1082.45
741.26	1081.07
741.59	1080.98
741.92	1083.34
742.25	1079.22
742.58	1078.80
742.91	1079.31
743.25	1079.13
743.58	1078.40
743.91	1082.08
744.24	1084.74
744.57	1086.80
744.90	1086.22
745.23	1083.62
745.56	1082.10
745.89	1080.16
746.22	1076.65
746.55	1076.65
746.88	1077.02
747.21	1078.05
747.54	1078.64
747.87	1081.94
748.20	1084.91
748.53	1085.40
748.87	1084.77
749.20	1083.22
749.53	1079.92
749.86	1078.24
750.19	1079.46
750.52	1080.46
750.85	1078.80
751.18	1077.56
751.51	1072.92
751.84	1072.74
752.16	1075.01
752.49	1076.53
752.82	1078.36
753.15	1082.99
753.48	1081.94
753.81	1077.75
754.14	1075.59
754.47	1075.71
754.80	1077.37
755.13	1078.12
755.46	1081.37
755.79	1082.45
756.12	1082.03
756.45	1079.90
756.78	1081.07
757.11	1081.23
757.43	1085.96
757.76	1087.72
758.09	1086.50
758.42	1087.20
758.75	1083.93
759.08	1078.54
759.41	1076.97
759.74	1077.79
760.07	1075.64
760.39	1076.48
760.72	1077.47
761.05	1074.31
761.38	1074.87
761.71	1073.14
762.04	1076.39
762.36	1077.18
762.69	1079.62
763.02	1082.05
763.35	1084.35
763.68	1082.97
764.01	1082.97
764.33	1084.44
764.66	1080.84
764.99	1078.57
765.32	1079.06
765.65	1077.65
765.97	1077.02
766.30	1076.76
766.63	1079.78
766.96	1078.50
767.28	1080.63
767.61	1080.34
767.94	1082.40
768.27	1078.03
768.59	1077.58
768.92	1075.80
769.25	1075.01
769.58	1073.35
769.90	1075.64
770.23	1078.40
770.56	1081.19
770.89	1083.18
771.21	1081.63
771.54	1082.47
771.87	1083.88
772.19	1082.47
772.52	1081.05
772.85	1081.47
773.17	1083.86
773.50	1078.10
773.83	1079.48
774.15	1077.96
774.48	1080.20
774.81	1077.84
775.13	1081.51
775.46	1078.21
775.79	1077.42
776.11	1078.26
776.44	1080.34
776.77	1079.53
777.09	1081.26
777.42	1081.28
777.74	1080.41
778.07	1078.92
778.40	1075.71
778.72	1077.54
779.05	1079.85
779.37	1077.37
779.70	1075.97
780.03	1078.61
780.35	1077.21
780.68	1077.16
781.00	1078.82
781.33	1077.82
781.65	1079.48
781.98	1078.61
782.31	1077.40
782.63	1077.00
782.96	1081.77
783.28	1080.91
783.61	1083.06
783.93	1082.83
784.26	1079.97
784.58	1075.57
784.91	1072.83
785.23	1070.58
785.56	1070.05
785.88	1071.85
786.21	1072.55
786.53	1073.07
786.86	1073.86
787.18	1076.44
787.51	1077.40
787.83	1079.62
788.16	1078.36
788.48	1076.51
788.81	1079.06
789.13	1081.84
789.46	1079.31
789.78	1083.29
790.10	1085.12
790.43	1083.01
790.75	1082.12
791.08	1081.07
791.40	1080.65
791.73	1080.60
792.05	1080.13
792.37	1081.30
792.70	1080.48
793.02	1078.14
793.35	1078.71
793.67	1076.60
793.99	1073.72
794.32	1074.03
794.64	1071.87
794.96	1067.28
795.29	1069.55
795.61	1069.70
795.93	1071.94
796.26	1074.68
796.58	1075.78
796.91	1074.40
797.23	1074.56
797.55	1072.92
797.87	1072.83
798.20	1075.87
798.52	1075.99
798.84	1074.59
799.17	1076.11
799.49	1075.55
799.81	1077.70
800.14	1074.59
800.46	1073.84
800.78	1075.78
801.10	1076.41
801.43	1074.42
801.75	1079.74
802.07	1078.87
802.40	1072.62
802.72	1071.47
803.04	1072.01
803.36	1070.82
803.69	1074.03
804.01	1080.09
804.33	1082.76
804.65	1078.73
804.97	1075.85
805.30	1073.23
805.62	1072.20
805.94	1071.75
806.26	1074.91
806.58	1078.75
806.91	1082.33
807.23	1083.25
807.55	1082.10
807.87	1082.87
808.19	1081.28
808.52	1080.20
808.84	1078.47
809.16	1075.92
809.48	1074.12
809.80	1075.83
810.12	1076.88
810.44	1076.11
810.77	1079.50
811.09	1080.18
811.41	1078.80
811.73	1076.08
812.05	1078.07
812.37	1076.46
812.69	1077.16
813.01	1075.52
813.33	1077.18
813.66	1077.65
813.98	1078.73
814.30	1077.02
814.62	1079.08
814.94	1080.51
815.26	1078.19
815.58	1078.66
815.90	1078.73
816.22	1078.14
816.54	1075.31
816.86	1077.49
817.18	1077.02
817.50	1079.15
817.82	1082.12
818.14	1082.76
818.46	1079.31
818.78	1079.38
819.10	1077.09
819.42	1075.34
819.74	1073.72
820.06	1076.39
820.38	1074.73
820.70	1073.86
821.02	1073.32
821.34	1074.38
821.66	1071.97
821.98	1073.02
822.30	1074.89
822.62	1071.33
822.94	1073.79
823.26	1072.48
823.58	1073.18
823.90	1072.62
824.22	1075.27
824.54	1074.42
824.86	1077.56
825.18	1077.98
825.50	1080.67
825.81	1083.32
826.13	1084.00
826.45	1085.73
826.77	1084.49
827.09	1082.26
827.41	1081.54
827.73	1078.28
828.05	1076.41
828.36	1075.69
828.68	1075.29
829.00	1073.00
829.32	1072.08
829.64	1072.48
829.96	1074.05
830.28	1073.28
830.59	1074.96
830.91	1077.89
831.23	1079.97
831.55	1077.56
831.87	1079.71
832.19	1078.19
832.50	1079.22
832.82	1077.28
833.14	1079.03
833.46	1076.37
833.78	1081.94
834.09	1083.32
834.41	1084.46
834.73	1085.68
835.05	1087.32
835.36	1083.13
835.68	1083.64
836.00	1083.71
836.32	1083.53
836.63	1083.18
836.95	1085.80
837.27	1082.40
837.59	1078.92
837.90	1077.86
838.22	1078.10
838.54	1074.52
838.85	1077.04
839.17	1079.62
839.49	1080.65
839.80	1079.22
840.12	1080.04
840.44	1078.03
840.76	1075.85
841.07	1071.92
841.39	1076.04
841.71	1075.22
842.02	1076.08
842.34	1074.40
842.65	1075.45
842.97	1072.25
843.29	1074.59
843.60	1073.23
843.92	1076.72
844.24	1077.23
844.55	1077.28
844.87	1075.90
845.18	1074.87
845.50	1075.87
845.82	1077.40
846.13	1079.31
846.45	1078.07
846.76	1078.45
847.08	1076.18
847.40	1075.43
847.71	1073.11
848.03	1073.79
848.34	1070.89
848.66	1074.40
848.97	1070.28
849.29	1072.67
849.60	1071.33
849.92	1071.73
850.24	1069.20
850.55	1074.54
850.87	1072.15
851.18	1072.92
851.50	1078.43
851.81	1075.01
852.13	1072.67
852.44	1076.37
852.76	1076.46
853.07	1075.78
853.39	1079.74
853.70	1081.89
854.01	1082.59
854.33	1083.13
854.64	1082.83
854.96	1082.61
855.27	1083.62
855.59	1079.95
855.90	1079.78
856.22	1078.92
856.53	1078.07
856.84	1076.39
857.16	1076.41
857.47	1074.59
857.79	1071.33
858.10	1071.90
858.41	1071.33
858.73	1070.26
859.04	1072.60
859.36	1075.83
859.67	1075.17
859.98	1074.59
860.30	1075.87
860.61	1074.87
860.92	1073.65
861.24	1071.68
861.55	1072.62
861.87	1070.75
862.18	1068.81
862.49	1071.08
862.81	1073.09
863.12	1072.06
863.43	1072.15
863.74	1076.15
864.06	1074.19
864.37	1073.72
864.68	1076.62
865.00	1081.02
865.31	1080.95
865.62	1080.84
865.94	1080.06
866.25	1076.34
866.56	1073.11
866.87	1071.15
867.19	1071.68
867.50	1072.92
867.81	1072.78
868.12	1073.00
868.44	1071.31
868.75	1069.67
869.06	1071.90
869.37	1076.23
869.68	1075.92
870.00	1078.38
870.31	1081.30
870.62	1081.87
870.93	1080.04
871.24	1078.36
871.56	1079.41
871.87	1080.46
872.18	1078.54
872.49	1078.85
872.80	1080.41
873.12	1077.56
873.43	1075.97
873.74	1077.04
874.05	1076.60
874.36	1078.68
874.67	1081.23
874.98	1077.49
875.29	1075.52
875.61	1074.47
875.92	1072.53
876.23	1068.62
876.54	1073.84
876.85	1076.53
877.16	1079.90
877.47	1080.91
877.78	1079.95
878.09	1076.37
878.40	1074.66
878.72	1073.58
879.03	1073.04
879.34	1075.66
879.65	1078.31
879.96	1082.24
880.27	1080.37
880.58	1078.75
880.89	1079.53
881.20	1077.44
881.51	1070.82
881.82	1071.94
882.13	1074.84
882.44	1072.74
882.75	1075.24
883.06	1074.10
883.37	1075.29
883.68	1072.71
883.99	1074.66
884.30	1072.08
884.61	1077.04
884.92	1075.97
885.23	1078.03
885.54	1078.99
885.85	1082.33
886.16	1078.85
886.47	1076.74
886.78	1076.39
887.08	1074.00
887.39	1070.98
887.70	1074.31
888.01	1077.70
888.32	1075.80
888.63	1079.10
888.94	1081.09
889.25	1079.13
889.56	1079.43
889.87	1083.67
890.17	1080.86
890.48	1080.11
890.79	1080.88
891.10	1078.61
891.41	1075.73
891.72	1076.27
892.03	1074.73
892.34	1073.14
892.64	1072.15
892.95	1071.57
893.26	1071.36
893.57	1073.63
893.88	1074.00
894.18	1077.35
894.49	1077.70
894.80	1077.91
895.11	1075.80
895.42	1077.89
895.72	1075.31
896.03	1076.90
896.34	1076.20
896.65	1078.89
896.96	1078.87
897.26	1081.26
897.57	1081.28
897.88	1082.76
898.19	1079.81
898.49	1077.54
898.80	1075.27
899.11	1072.13
899.41	1072.32
899.72	1072.04
900.03	1074.10
900.34	1073.65
900.64	1075.03
900.95	1074.26
901.26	1074.42
901.56	1074.05
901.87	1073.88
902.18	1075.90
902.48	1077.82
902.79	1079.01
903.10	1077.04
903.40	1078.54
903.71	1077.16
904.02	1077.96
904.32	1076.88
904.63	1078.61
904.94	1076.25
905.24	1079.15
905.55	1074.49
905.85	1075.34
906.16	1075.43
906.47	1077.07
906.77	1072.97
907.08	1077.21
907.38	1075.94
907.69	1075.29
908.00	1075.97
908.30	1078.33
908.61	1076.32
908.91	1077.30
909.22	1079.24
909.52	1078.45
909.83	1078.85
910.14	1077.77
910.44	1079.03
910.75	1076.01
911.05	1074.24
911.36	1074.54
911.66	1075.38
911.97	1075.52
912.27	1078.71
912.58	1081.89
912.88	1077.37
913.19	1073.63
913.49	1074.26
913.80	1072.69
914.10	1069.32
914.41	1072.50
914.71	1075.99
915.01	1074.35
915.32	1074.54
915.62	1076.95
915.93	1074.47
916.23	1079.15
916.54	1078.80
916.84	1076.11
917.15	1076.39
917.45	1079.06
917.75	1074.10
918.06	1076.67
918.36	1081.94
918.67	1080.06
918.97	1079.38
919.27	1082.10
919.58	1078.31
919.88	1076.48
920.18	1076.88
920.49	1077.56
920.79	1080.02
921.10	1083.60
921.40	1083.46
921.70	1086.24
922.01	1086.38
922.31	1083.64
922.61	1078.38
922.92	1077.44
923.22	1071.68
923.52	1070.82
923.82	1068.76
924.13	1073.28
924.43	1073.28
924.73	1075.05
925.04	1074.98
925.34	1076.86
925.64	1074.89
925.94	1072.15
926.25	1074.42
926.55	1072.20
926.85	1073.16
927.15	1072.60
927.46	1074.03
927.76	1075.22
928.06	1080.58
928.36	1078.26
928.67	1079.50
928.97	1083.08
929.27	1082.08
929.57	1079.76
929.87	1078.40
930.18	1078.12
930.48	1074.94
930.78	1075.34
931.08	1075.78
931.38	1077.33
931.69	1076.11
931.99	1078.40
932.29	1077.25
932.59	1076.65
932.89	1076.37
933.19	1078.38
933.49	1077.23
933.80	1077.18
934.10	1079.67
934.40	1080.51
934.70	1079.50
935.00	1078.28
935.30	1079.69
935.60	1076.69
935.90	1078.21
936.20	1078.87
936.50	1077.07
936.81	1077.93
937.11	1078.03
937.41	1075.17
937.71	1074.82
938.01	1076.83
938.31	1076.93
938.61	1076.11
938.91	1077.58
939.21	1079.24
939.51	1077.86
939.81	1072.34
940.11	1071.57
940.41	1070.19
940.71	1069.67
941.01	1073.28
941.31	1078.87
941.61	1082.36
941.91	1084.35
942.21	1085.99
942.51	1085.66
942.81	1081.70
943.11	1078.68
943.41	1075.43
943.71	1074.05
944.01	1074.61
944.31	1079.34
944.61	1083.18
944.90	1086.13
945.20	1083.64
945.50	1081.80
945.80	1081.49
946.10	1077.25
946.40	1076.88
946.70	1078.12
947.00	1077.89
947.30	1073.88
947.60	1075.24
947.89	1075.78
948.19	1074.14
948.49	1074.00
948.79	1077.04
949.09	1078.64
949.39	1076.83
949.69	1078.71
949.98	1081.26
950.28	1079.97
950.58	1082.57
950.88	1082.05
951.18	1085.68
951.48	1084.18
951.77	1084.39
952.07	1080.06
952.37	1082.33
952.67	1077.77
952.97	1076.37
953.26	1075.78
953.56	1076.62
953.86	1073.25
954.16	1076.08
954.45	1076.32
954.75	1075.22
955.05	1074.98
955.35	1078.36
955.64	1073.18
955.94	1070.80
956.24	1070.61
956.54	1070.65
956.83	1070.70
957.13	1075.34
957.43	1078.92
957.72	1081.42
958.02	1083.08
958.32	1081.68
958.61	1078.54
958.91	1079.27
959.21	1079.22
959.50	1075.48
959.80	1074.26
960.10	1074.70
960.39	1075.20
960.69	1074.59
960.99	1076.81
961.28	1080.06
961.58	1084.04
961.87	1085.84
962.17	1084.72
962.47	1082.87
962.76	1080.77
963.06	1076.46
963.36	1073.28
963.65	1076.11
963.95	1077.65
964.24	1080.27
964.54	1082.50
964.83	1080.84
965.13	1076.58
965.42	1076.48
965.72	1074.61
966.02	1074.47
966.31	1078.26
966.61	1081.30
966.90	1081.61
967.20	1081.58
967.49	1079.27
967.79	1075.27
968.08	1074.24
968.38	1072.90
968.67	1069.32
968.97	1072.95
969.26	1073.02
969.56	1075.38
969.85	1075.36
970.15	1078.31
970.44	1075.78
970.74	1079.64
971.03	1076.58
971.32	1077.23
971.62	1076.32
971.91	1077.96
972.21	1076.95
972.50	1079.99
972.80	1078.96
973.09	1080.23
973.38	1079.08
973.68	1076.08
973.97	1077.04
974.27	1080.34
974.56	1080.18
974.85	1081.12
975.15	1083.08
975.44	1080.32
975.73	1074.73
976.03	1075.99
976.32	1077.07
976.61	1075.76
976.91	1074.40
977.20	1076.06
977.49	1074.70
977.79	1075.27
978.08	1076.60
978.37	1079.24
978.67	1083.25
978.96	1080.20
979.25	1077.79
979.55	1077.40
979.84	1075.10
980.13	1075.13
980.42	1078.07
980.72	1080.27
981.01	1078.19
981.30	1078.85
981.59	1074.96
981.89	1073.49
982.18	1070.02
982.47	1071.54
982.76	1073.79
983.06	1077.56
983.35	1079.38
983.64	1081.40
983.93	1082.47
984.22	1079.48
984.52	1077.63
984.81	1076.79
985.10	1072.83
985.39	1070.87
985.68	1071.99
985.97	1071.78
986.27	1073.21
986.56	1076.15
986.85	1077.77
987.14	1076.37
987.43	1074.52
987.72	1073.77
988.01	1072.92
988.31	1076.27
988.60	1077.96
988.89	1081.09
989.18	1079.53
989.47	1080.18
989.76	1076.39
990.05	1078.03
990.34	1077.98
990.63	1077.58
990.92	1078.38
991.21	1078.36
991.51	1077.49
991.80	1076.37
992.09	1077.68
992.38	1076.58
992.67	1078.19
992.96	1076.20
993.25	1079.01
993.54	1080.95
993.83	1082.76
994.12	1078.94
994.41	1080.48
994.70	1078.57
994.99	1077.75
995.28	1078.10
995.57	1082.61
995.86	1082.69
996.15	1080.93
996.44	1079.17
996.73	1077.28
997.02	1073.51
997.31	1072.50
997.59	1072.04
997.88	1076.95
998.17	1078.82
998.46	1078.61
998.75	1078.73
999.04	1081.49
999.33	1075.85
999.62	1072.34
999.91	1073.81
1000.20	1070.28
1000.49	1066.11
1000.77	1067.71
1001.06	1069.06
1001.35	1067.78
1001.64	1072.22
1001.93	1077.44
1002.22	1075.38
1002.51	1075.59
1002.79	1077.49
1003.08	1075.94
1003.37	1076.08
1003.66	1078.05
1003.95	1077.84
1004.23	1078.03
1004.52	1075.38
1004.81	1074.42
1005.10	1076.39
1005.39	1076.86
1005.67	1075.34
1005.96	1078.78
1006.25	1077.65
1006.54	1075.08
1006.83	1076.15
1007.11	1077.14
1007.40	1078.92
1007.69	1079.24
1007.97	1078.82
1008.26	1076.46
1008.55	1076.83
1008.84	1075.69
1009.12	1076.32
1009.41	1078.26
1009.70	1078.92
1009.98	1078.57
1010.27	1079.97
1010.56	1078.00
1010.85	1077.79
1011.13	1079.76
1011.42	1081.51
1011.71	1079.92
1011.99	1081.07
1012.28	1079.64
1012.56	1078.80
1012.85	1075.57
1013.14	1074.87
1013.42	1074.12
1013.71	1074.61
1014.00	1075.45
1014.28	1078.24
1014.57	1076.88
1014.85	1077.16
1015.14	1075.64
1015.43	1074.59
1015.71	1069.77
1016.00	1072.55
1016.28	1070.72
1016.57	1074.66
1016.85	1075.13
1017.14	1078.00
1017.43	1074.87
1017.71	1077.14
1018.00	1072.39
1018.28	1071.90
1018.57	1069.91
1018.85	1074.52
1019.14	1074.31
1019.42	1077.07
1019.71	1077.40
1019.99	1081.19
1020.28	1077.30
1020.56	1077.93
1020.85	1077.16
1021.13	1078.68
1021.42	1076.32
1021.70	1075.43
1021.99	1073.44
1022.27	1074.07
1022.55	1071.85
1022.84	1075.01
>>>>>End Processed Spectral Data<<<<<
