SpectraSuite Data File
++++++++++++++++++++++++++++++++++++
Date: Mon Aug 26 10:22:14 PDT 2019
User: corrico
Dark Spectrum Present: No
Reference Spectrum Present: No
Number of Sampled Component Spectra: 1
Spectrometers: USB2+H06089
Integration Time (usec): 2000 (USB2+H06089)
Spectra Averaged: 20 (USB2+H06089)
Boxcar Smoothing: 2 (USB2+H06089)
Correct for Electrical Dark: No (USB2+H06089)
Strobe/Lamp Enabled: No (USB2+H06089)
Correct for Detector Non-linearity: No (USB2+H06089)
Correct for Stray Light: No (USB2+H06089)
Number of Pixels in Processed Spectrum: 2048
>>>>>Begin Processed Spectral Data<<<<<
339.70	1012.75
340.07	1012.75
340.45	985.83
340.82	968.07
341.19	946.98
341.57	925.54
341.94	916.83
342.31	908.69
342.69	903.45
343.06	901.88
343.43	902.16
343.81	899.42
344.18	903.82
344.55	909.60
344.93	914.19
345.30	917.68
345.67	926.31
346.04	936.59
346.42	939.80
346.79	946.72
347.16	955.62
347.54	963.95
347.91	968.44
348.28	983.40
348.65	992.60
349.03	1002.52
349.40	1010.41
349.77	1019.07
350.14	1023.96
350.52	1035.69
350.89	1044.82
351.26	1050.29
351.63	1056.38
352.01	1059.79
352.38	1060.45
352.75	1063.73
353.12	1066.37
353.50	1067.96
353.87	1072.06
354.24	1073.42
354.61	1075.76
354.98	1077.37
355.36	1081.82
355.73	1084.98
356.10	1085.96
356.47	1083.18
356.84	1086.13
357.22	1084.86
357.59	1085.33
357.96	1088.82
358.33	1090.69
358.70	1090.78
359.08	1091.18
359.45	1089.43
359.82	1087.06
360.19	1087.37
360.56	1085.07
360.94	1082.71
361.31	1080.56
361.68	1079.81
362.05	1076.51
362.42	1075.71
362.79	1077.44
363.16	1076.23
363.54	1075.66
363.91	1073.44
364.28	1073.81
364.65	1072.57
365.02	1073.07
365.39	1073.81
365.76	1078.64
366.14	1081.58
366.51	1081.44
366.88	1081.54
367.25	1078.85
367.62	1075.20
367.99	1071.92
368.36	1068.67
368.73	1071.31
369.10	1074.10
369.48	1072.81
369.85	1076.18
370.22	1076.37
370.59	1074.28
370.96	1073.91
371.33	1077.54
371.70	1074.75
372.07	1075.97
372.44	1073.56
372.81	1074.80
373.18	1075.45
373.55	1078.12
373.93	1082.38
374.30	1086.10
374.67	1085.17
375.04	1084.91
375.41	1082.52
375.78	1081.44
376.15	1079.48
376.52	1079.08
376.89	1076.13
377.26	1078.71
377.63	1079.67
378.00	1083.64
378.37	1083.83
378.74	1085.66
379.11	1082.64
379.48	1082.36
379.85	1080.02
380.22	1079.03
380.59	1079.67
380.96	1081.05
381.33	1079.08
381.70	1077.70
382.07	1078.40
382.44	1077.75
382.81	1075.41
383.18	1075.50
383.55	1077.77
383.92	1078.03
384.29	1079.74
384.66	1081.30
385.03	1081.96
385.40	1082.85
385.77	1084.44
386.14	1084.44
386.51	1085.21
386.88	1083.20
387.25	1080.37
387.62	1079.83
387.99	1080.63
388.36	1080.11
388.73	1083.13
389.10	1086.62
389.46	1087.16
389.83	1086.85
390.20	1087.44
390.57	1085.84
390.94	1083.32
391.31	1079.78
391.68	1079.36
392.05	1080.37
392.42	1083.13
392.79	1081.87
393.16	1087.51
393.53	1089.78
393.89	1088.89
394.26	1087.20
394.63	1089.12
395.00	1088.77
395.37	1088.16
395.74	1086.94
396.11	1088.79
396.48	1089.43
396.84	1088.04
397.21	1088.84
397.58	1092.59
397.95	1093.97
398.32	1093.59
398.69	1092.02
399.06	1089.89
399.42	1089.99
399.79	1089.64
400.16	1089.96
400.53	1090.17
400.90	1092.75
401.27	1091.93
401.64	1090.95
402.00	1092.84
402.37	1093.47
402.74	1092.89
403.11	1092.09
403.48	1091.88
403.84	1093.76
404.21	1096.14
404.58	1095.58
404.95	1097.15
405.32	1095.56
405.68	1092.59
406.05	1091.51
406.42	1093.33
406.79	1095.23
407.16	1095.35
407.52	1094.72
407.89	1099.16
408.26	1097.27
408.63	1094.57
408.99	1097.83
409.36	1099.19
409.73	1097.24
410.10	1097.92
410.47	1098.34
410.83	1094.57
411.20	1092.66
411.57	1091.51
411.94	1093.47
412.30	1094.18
412.67	1096.61
413.04	1098.95
413.40	1100.87
413.77	1099.72
414.14	1102.16
414.51	1104.17
414.87	1105.25
415.24	1104.48
415.61	1105.74
415.97	1105.51
416.34	1106.42
416.71	1110.54
417.08	1109.04
417.44	1111.57
417.81	1110.94
418.18	1109.84
418.54	1106.93
418.91	1109.23
419.28	1106.84
419.64	1108.38
420.01	1111.99
420.38	1112.57
420.74	1117.32
421.11	1119.88
421.48	1121.26
421.84	1123.13
422.21	1125.59
422.58	1125.98
422.94	1132.63
423.31	1136.38
423.68	1137.06
424.04	1145.25
424.41	1147.21
424.77	1146.75
425.14	1151.08
425.51	1155.92
425.87	1158.54
426.24	1167.20
426.61	1173.76
426.97	1181.74
427.34	1190.47
427.70	1196.46
428.07	1201.07
428.44	1207.51
428.80	1215.18
429.17	1223.87
429.53	1237.65
429.90	1251.37
430.27	1266.28
430.63	1277.09
431.00	1291.11
431.36	1303.82
431.73	1315.99
432.09	1331.93
432.46	1349.04
432.83	1366.38
433.19	1384.87
433.56	1409.70
433.92	1434.58
434.29	1462.18
434.65	1490.20
435.02	1517.65
435.38	1554.09
435.75	1585.32
436.11	1623.65
436.48	1661.20
436.84	1704.00
437.21	1743.42
437.57	1791.52
437.94	1840.62
438.30	1895.60
438.67	1953.22
439.03	2014.50
439.40	2079.36
439.76	2149.52
440.13	2228.99
440.49	2314.81
440.86	2388.82
441.22	2477.53
441.59	2566.26
441.95	2665.75
442.32	2765.83
442.68	2894.80
443.05	3014.63
443.41	3144.44
443.78	3271.25
444.14	3410.18
444.51	3537.65
444.87	3702.82
445.24	3866.40
445.60	4042.08
445.96	4218.28
446.33	4431.36
446.69	4617.50
447.06	4832.62
447.42	5053.64
447.79	5288.70
448.15	5547.58
448.51	5819.06
448.88	6129.96
449.24	6428.68
449.61	6774.98
449.97	7114.92
450.33	7493.13
450.70	7844.49
451.06	8272.04
451.43	8666.04
451.79	9122.19
452.15	9604.69
452.52	10145.22
452.88	10690.94
453.24	11314.29
453.61	12018.44
453.97	12726.17
454.34	13410.24
454.70	14206.37
455.06	14999.86
455.43	15734.09
455.79	16402.87
456.15	17208.06
456.52	17954.58
456.88	18851.00
457.24	19744.01
457.61	20861.85
457.97	21907.39
458.33	22990.87
458.70	24046.36
459.06	25055.76
459.42	26054.16
459.79	26963.04
460.15	27972.94
460.51	28934.12
460.88	30001.74
461.24	30970.27
461.60	32101.92
461.96	33163.14
462.33	34193.59
462.69	35197.35
463.05	36277.98
463.42	37264.00
463.78	38159.04
464.14	38872.11
464.50	39607.43
464.87	40143.60
465.23	40495.32
465.59	40923.87
465.95	41296.06
466.32	41570.49
466.68	41811.33
467.04	41959.21
467.40	41957.29
467.77	42038.83
468.13	41950.01
468.49	41800.56
468.85	41695.89
469.22	41542.38
469.58	41280.82
469.94	41099.97
470.30	40851.78
470.66	40478.11
471.03	39994.51
471.39	39621.34
471.75	38907.26
472.11	38204.26
472.47	37706.15
472.84	37180.18
473.20	36473.53
473.56	36083.10
473.92	35509.74
474.28	34893.29
474.65	34260.79
475.01	33605.76
475.37	32795.02
475.73	32155.94
476.09	31465.74
476.45	30828.13
476.81	30310.69
477.18	29782.59
477.54	29298.05
477.90	28859.76
478.26	28325.94
478.62	27790.05
478.98	27333.27
479.34	26892.38
479.71	26329.67
480.07	25873.31
480.43	25436.01
480.79	24978.69
481.15	24528.88
481.51	24186.77
481.87	23875.22
482.23	23502.98
482.59	23163.91
482.96	22857.58
483.32	22546.40
483.68	22160.50
484.04	21820.37
484.40	21428.94
484.76	20995.19
485.12	20536.70
485.48	20101.48
485.84	19613.15
486.20	19189.79
486.56	18755.41
486.92	18372.88
487.28	17988.68
487.64	17596.62
488.00	17210.33
488.37	16838.17
488.73	16422.65
489.09	15989.39
489.45	15588.79
489.81	15164.14
490.17	14734.21
490.53	14333.93
490.89	13937.98
491.25	13538.92
491.61	13137.36
491.97	12746.74
492.33	12354.59
492.69	11977.34
493.05	11631.99
493.41	11308.60
493.77	10984.88
494.13	10681.81
494.49	10386.55
494.85	10106.39
495.21	9835.70
495.57	9588.50
495.93	9329.02
496.29	9083.31
496.64	8861.29
497.00	8620.03
497.36	8371.44
497.72	8132.12
498.08	7924.26
498.44	7690.81
498.80	7483.49
499.16	7284.26
499.52	7100.25
499.88	6927.31
500.24	6752.91
500.60	6591.67
500.96	6437.95
501.32	6278.56
501.68	6099.51
502.03	5940.16
502.39	5784.54
502.75	5620.28
503.11	5476.85
503.47	5339.58
503.83	5211.53
504.19	5079.29
504.55	4957.82
504.91	4835.06
505.26	4712.90
505.62	4590.66
505.98	4475.43
506.34	4362.64
506.70	4246.25
507.06	4144.90
507.42	4045.03
507.78	3950.03
508.13	3864.32
508.49	3785.72
508.85	3713.00
509.21	3633.21
509.57	3550.05
509.93	3463.36
510.28	3373.37
510.64	3290.28
511.00	3207.94
511.36	3134.00
511.72	3068.63
512.07	3008.03
512.43	2944.53
512.79	2885.95
513.15	2830.55
513.51	2771.48
513.86	2716.29
514.22	2660.04
514.58	2614.35
514.94	2561.32
515.30	2520.34
515.65	2478.60
516.01	2443.05
516.37	2399.84
516.73	2367.66
517.08	2329.51
517.44	2288.62
517.80	2246.14
518.16	2210.40
518.51	2173.02
518.87	2136.25
519.23	2102.22
519.59	2076.48
519.94	2047.45
520.30	2025.69
520.66	1996.36
521.01	1966.54
521.37	1935.67
521.73	1911.91
522.09	1880.48
522.44	1855.58
522.80	1838.42
523.16	1817.05
523.51	1794.02
523.87	1772.51
524.23	1751.68
524.58	1730.64
524.94	1712.38
525.30	1689.19
525.65	1674.02
526.01	1656.05
526.37	1639.26
526.72	1619.39
527.08	1602.87
527.44	1584.17
527.79	1571.76
528.15	1556.18
528.51	1541.62
528.86	1528.07
529.22	1513.86
529.58	1495.44
529.93	1481.96
530.29	1470.04
530.65	1457.62
531.00	1448.14
531.36	1441.21
531.71	1429.13
532.07	1418.79
532.43	1409.68
532.78	1396.81
533.14	1386.88
533.49	1375.91
533.85	1367.11
534.21	1357.96
534.56	1353.39
534.92	1345.41
535.27	1339.77
535.63	1333.01
535.98	1323.81
536.34	1312.46
536.69	1305.41
537.05	1299.11
537.41	1292.56
537.76	1289.66
538.12	1288.56
538.47	1279.99
538.83	1274.12
539.18	1265.22
539.54	1253.85
539.89	1247.51
540.25	1243.88
540.60	1237.18
540.96	1237.53
541.31	1239.64
541.67	1235.12
542.02	1231.75
542.38	1231.64
542.73	1227.80
543.09	1223.05
543.44	1218.72
543.80	1218.51
544.15	1211.44
544.51	1206.87
544.86	1202.78
545.22	1199.48
545.57	1195.97
545.93	1193.37
546.28	1192.36
546.64	1189.74
546.99	1188.43
547.35	1187.35
547.70	1187.00
548.05	1182.63
548.41	1178.65
548.76	1173.80
549.12	1169.99
549.47	1167.53
549.83	1164.44
550.18	1162.68
550.53	1160.81
550.89	1153.14
551.24	1150.44
551.60	1149.83
551.95	1149.83
552.30	1146.96
552.66	1151.01
553.01	1151.64
553.37	1151.64
553.72	1150.19
554.07	1149.93
554.43	1146.32
554.78	1142.72
555.13	1138.62
555.49	1138.13
555.84	1137.66
556.19	1136.96
556.55	1137.20
556.90	1135.53
557.26	1127.93
557.61	1125.98
557.96	1124.98
558.32	1123.97
558.67	1123.53
559.02	1128.04
559.37	1125.89
559.73	1126.76
560.08	1126.08
560.43	1127.93
560.79	1125.07
561.14	1125.45
561.49	1122.47
561.85	1121.00
562.20	1117.47
562.55	1117.30
562.90	1115.52
563.26	1115.69
563.61	1112.27
563.96	1110.79
564.32	1112.15
564.67	1110.96
565.02	1106.46
565.37	1108.38
565.73	1108.90
566.08	1107.75
566.43	1110.30
566.78	1115.31
567.14	1113.51
567.49	1116.83
567.84	1116.74
568.19	1113.44
568.54	1110.02
568.90	1112.41
569.25	1110.75
569.60	1110.96
569.95	1113.60
570.31	1113.18
570.66	1112.90
571.01	1108.10
571.36	1104.41
571.71	1102.79
572.06	1101.20
572.42	1097.38
572.77	1098.30
573.12	1099.54
573.47	1099.77
573.82	1100.36
574.18	1101.43
574.53	1098.51
574.88	1097.92
575.23	1094.72
575.58	1095.63
575.93	1095.91
576.28	1100.68
576.64	1102.13
576.99	1106.00
577.34	1104.15
577.69	1102.39
578.04	1102.11
578.39	1100.31
578.74	1097.06
579.09	1099.91
579.44	1100.96
579.80	1097.92
580.15	1098.13
580.50	1100.82
580.85	1098.06
581.20	1097.52
581.55	1096.78
581.90	1096.31
582.25	1091.79
582.60	1091.93
582.95	1090.29
583.30	1090.78
583.65	1091.09
584.00	1094.48
584.35	1093.87
584.71	1090.55
585.06	1092.07
585.41	1093.15
585.76	1091.67
586.11	1088.58
586.46	1092.75
586.81	1094.15
587.16	1093.22
587.51	1090.92
587.86	1093.45
588.21	1094.46
588.56	1090.39
588.91	1090.62
589.26	1095.00
589.61	1094.29
589.96	1092.70
590.31	1092.63
590.66	1092.80
591.01	1090.39
591.36	1090.53
591.71	1091.18
592.06	1092.19
592.41	1089.29
592.76	1087.44
593.10	1088.70
593.45	1087.81
593.80	1086.22
594.15	1087.11
594.50	1086.13
594.85	1086.71
595.20	1087.62
595.55	1087.06
595.90	1088.00
596.25	1090.64
596.60	1089.47
596.95	1088.09
597.30	1090.29
597.64	1100.68
597.99	1102.06
598.34	1103.14
598.69	1103.98
599.04	1100.17
599.39	1088.96
599.74	1087.90
600.09	1087.74
600.44	1087.86
600.78	1090.85
601.13	1090.67
601.48	1090.88
601.83	1090.06
602.18	1087.67
602.53	1088.09
602.88	1086.03
603.22	1086.15
603.57	1085.40
603.92	1088.28
604.27	1088.63
604.62	1090.27
604.97	1087.72
605.31	1086.59
605.66	1084.67
606.01	1082.24
606.36	1081.42
606.71	1084.89
607.05	1085.77
607.40	1083.53
607.75	1082.29
608.10	1084.60
608.44	1083.39
608.79	1082.94
609.14	1085.68
609.49	1088.33
609.84	1084.98
610.18	1083.01
610.53	1085.45
610.88	1086.57
611.23	1087.02
611.57	1090.32
611.92	1090.55
612.27	1088.89
612.62	1088.82
612.96	1089.22
613.31	1091.86
613.66	1092.96
614.00	1092.12
614.35	1091.49
614.70	1089.19
615.05	1086.13
615.39	1086.13
615.74	1085.05
616.09	1083.22
616.43	1082.59
616.78	1081.28
617.13	1079.92
617.47	1082.45
617.82	1084.60
618.17	1088.91
618.51	1088.84
618.86	1088.00
619.21	1087.41
619.55	1086.03
619.90	1081.94
620.25	1083.46
620.59	1085.14
620.94	1085.56
621.29	1087.88
621.63	1090.55
621.98	1090.15
622.32	1089.82
622.67	1088.16
623.02	1084.00
623.36	1083.36
623.71	1081.30
624.05	1083.01
624.40	1082.45
624.75	1086.24
625.09	1087.74
625.44	1087.79
625.78	1085.21
626.13	1087.41
626.48	1087.32
626.82	1087.11
627.17	1087.55
627.51	1087.76
627.86	1084.89
628.20	1083.53
628.55	1078.64
628.89	1081.30
629.24	1084.86
629.58	1086.78
629.93	1083.43
630.28	1085.84
630.62	1084.14
630.97	1081.14
631.31	1080.93
631.66	1083.79
632.00	1081.84
632.35	1080.91
632.69	1080.44
633.04	1078.17
633.38	1077.21
633.73	1079.20
634.07	1076.72
634.42	1077.02
634.76	1078.68
635.11	1080.23
635.45	1080.72
635.79	1087.46
636.14	1087.48
636.48	1088.56
636.83	1088.47
637.17	1085.99
637.52	1081.87
637.86	1080.86
638.21	1080.67
638.55	1080.30
638.89	1082.69
639.24	1084.63
639.58	1087.48
639.93	1088.72
640.27	1090.20
640.61	1089.10
640.96	1086.69
641.30	1087.81
641.65	1087.18
641.99	1088.02
642.33	1088.98
642.68	1087.88
643.02	1082.61
643.37	1084.60
643.71	1079.90
644.05	1079.15
644.40	1077.09
644.74	1078.99
645.08	1075.48
645.43	1079.50
645.77	1077.04
646.11	1079.36
646.46	1081.96
646.80	1085.21
647.14	1081.35
647.49	1084.96
647.83	1087.51
648.17	1085.66
648.52	1083.62
648.86	1082.73
649.20	1084.60
649.55	1082.38
649.89	1084.28
650.23	1082.59
650.57	1086.57
650.92	1081.49
651.26	1081.19
651.60	1079.67
651.95	1078.43
652.29	1079.74
652.63	1083.15
652.97	1084.77
653.32	1083.79
653.66	1087.23
654.00	1084.16
654.34	1082.45
654.69	1082.99
655.03	1082.69
655.37	1083.32
655.71	1084.60
656.05	1084.70
656.40	1081.49
656.74	1078.43
657.08	1074.03
657.42	1075.20
657.76	1075.36
658.11	1077.33
658.45	1081.00
658.79	1083.39
659.13	1081.16
659.47	1083.29
659.82	1084.49
660.16	1085.28
660.50	1085.56
660.84	1086.62
661.18	1082.71
661.52	1083.29
661.87	1081.96
662.21	1082.92
662.55	1081.47
662.89	1083.34
663.23	1078.99
663.57	1078.99
663.91	1077.33
664.25	1076.53
664.60	1076.79
664.94	1078.71
665.28	1079.41
665.62	1079.22
665.96	1083.39
666.30	1081.96
666.64	1082.22
666.98	1083.86
667.32	1081.28
667.66	1078.40
668.01	1082.64
668.35	1084.02
668.69	1080.23
669.03	1084.28
669.37	1085.68
669.71	1079.85
670.05	1080.51
670.39	1080.23
670.73	1081.84
671.07	1080.81
671.41	1084.81
671.75	1085.45
672.09	1085.77
672.43	1083.34
672.77	1083.81
673.11	1081.87
673.45	1078.45
673.79	1079.62
674.13	1079.17
674.47	1078.19
674.81	1078.96
675.15	1081.21
675.49	1082.50
675.83	1085.54
676.17	1088.58
676.51	1089.82
676.85	1088.23
677.19	1085.21
677.53	1083.06
677.87	1080.98
678.21	1078.40
678.55	1076.74
678.89	1078.33
679.23	1077.42
679.57	1075.24
679.90	1074.26
680.24	1073.70
680.58	1075.66
680.92	1075.73
681.26	1079.85
681.60	1082.76
681.94	1083.36
682.28	1081.44
682.62	1083.41
682.96	1080.56
683.29	1078.85
683.63	1079.90
683.97	1078.38
684.31	1079.88
684.65	1078.12
684.99	1080.18
685.33	1080.51
685.67	1082.33
686.00	1082.57
686.34	1084.91
686.68	1082.73
687.02	1085.14
687.36	1084.96
687.70	1080.13
688.03	1078.14
688.37	1078.14
688.71	1077.75
689.05	1080.65
689.39	1083.04
689.72	1086.27
690.06	1087.37
690.40	1088.91
690.74	1087.60
691.08	1088.35
691.41	1087.16
691.75	1088.49
692.09	1085.91
692.43	1085.05
692.76	1081.80
693.10	1083.71
693.44	1085.38
693.78	1086.66
694.11	1088.89
694.45	1090.55
694.79	1090.15
695.13	1088.21
695.46	1088.09
695.80	1084.86
696.14	1086.13
696.48	1082.99
696.81	1081.44
697.15	1082.19
697.49	1084.86
697.82	1084.81
698.16	1084.84
698.50	1083.71
698.83	1083.34
699.17	1082.03
699.51	1080.86
699.84	1080.93
700.18	1083.01
700.52	1079.46
700.85	1076.18
701.19	1075.83
701.53	1076.83
701.86	1074.26
702.20	1074.42
702.54	1074.19
702.87	1074.42
703.21	1074.98
703.55	1079.92
703.88	1082.69
704.22	1083.57
704.55	1084.65
704.89	1086.59
705.23	1082.66
705.56	1081.84
705.90	1080.77
706.23	1076.74
706.57	1073.91
706.91	1076.37
707.24	1076.93
707.58	1078.38
707.91	1079.71
708.25	1078.43
708.58	1078.14
708.92	1080.44
709.26	1084.00
709.59	1084.96
709.93	1086.34
710.26	1085.91
710.60	1082.29
710.93	1081.26
711.27	1083.06
711.60	1081.63
711.94	1081.56
712.27	1080.04
712.61	1079.43
712.94	1077.35
713.28	1080.81
713.61	1079.46
713.95	1084.16
714.28	1085.24
714.62	1087.62
714.95	1087.60
715.29	1089.54
715.62	1088.72
715.96	1084.56
716.29	1079.69
716.63	1081.09
716.96	1081.49
717.29	1076.46
717.63	1080.34
717.96	1085.75
718.30	1083.62
718.63	1084.98
718.97	1090.03
719.30	1088.16
719.63	1087.34
719.97	1087.72
720.30	1084.98
720.64	1082.12
720.97	1083.36
721.30	1081.84
721.64	1082.12
721.97	1084.28
722.31	1085.96
722.64	1085.05
722.97	1087.34
723.31	1083.22
723.64	1080.48
723.97	1080.04
724.31	1081.00
724.64	1080.32
724.98	1084.00
725.31	1087.58
725.64	1085.17
725.98	1084.44
726.31	1081.26
726.64	1079.48
726.97	1078.47
727.31	1081.98
727.64	1085.33
727.97	1089.57
728.31	1091.88
728.64	1089.22
728.97	1085.91
729.31	1084.53
729.64	1079.92
729.97	1076.88
730.30	1076.62
730.64	1080.46
730.97	1078.45
731.30	1081.94
731.63	1083.95
731.97	1086.17
732.30	1082.31
732.63	1084.14
732.96	1084.04
733.30	1083.08
733.63	1081.05
733.96	1081.37
734.29	1078.50
734.63	1076.15
734.96	1074.17
735.29	1077.72
735.62	1079.22
735.95	1078.66
736.29	1081.00
736.62	1083.55
736.95	1083.01
737.28	1082.76
737.61	1081.56
737.94	1080.20
738.28	1080.53
738.61	1078.89
738.94	1077.98
739.27	1080.30
739.60	1076.62
739.93	1073.58
740.27	1072.81
740.60	1074.49
740.93	1072.88
741.26	1077.37
741.59	1077.86
741.92	1079.13
742.25	1081.30
742.58	1086.10
742.91	1084.16
743.25	1086.34
743.58	1085.94
743.91	1083.27
744.24	1080.56
744.57	1084.49
744.90	1081.26
745.23	1078.87
745.56	1078.85
745.89	1075.48
746.22	1072.13
746.55	1074.54
746.88	1076.69
747.21	1077.40
747.54	1078.61
747.87	1078.47
748.20	1079.15
748.53	1080.13
748.87	1077.02
749.20	1078.05
749.53	1080.48
749.86	1081.75
750.19	1077.77
750.52	1080.30
750.85	1082.59
751.18	1083.25
751.51	1083.08
751.84	1088.02
752.16	1089.85
752.49	1088.77
752.82	1085.19
753.15	1084.49
753.48	1081.54
753.81	1078.03
754.14	1076.18
754.47	1076.13
754.80	1074.07
755.13	1074.10
755.46	1075.55
755.79	1078.31
756.12	1077.58
756.45	1079.24
756.78	1079.57
757.11	1080.25
757.43	1078.80
757.76	1081.87
758.09	1082.38
758.42	1083.34
758.75	1086.01
759.08	1087.79
759.41	1085.12
759.74	1085.14
760.07	1086.22
760.39	1082.92
760.72	1081.51
761.05	1081.82
761.38	1083.62
761.71	1080.27
762.04	1078.73
762.36	1076.06
762.69	1076.74
763.02	1075.59
763.35	1078.40
763.68	1080.65
764.01	1081.42
764.33	1081.42
764.66	1080.81
764.99	1077.14
765.32	1074.82
765.65	1077.11
765.97	1077.21
766.30	1074.75
766.63	1076.83
766.96	1079.76
767.28	1081.47
767.61	1082.22
767.94	1084.39
768.27	1085.49
768.59	1082.73
768.92	1080.34
769.25	1079.76
769.58	1077.30
769.90	1078.17
770.23	1078.31
770.56	1079.03
770.89	1078.71
771.21	1081.16
771.54	1080.98
771.87	1083.41
772.19	1082.71
772.52	1083.60
772.85	1082.47
773.17	1081.94
773.50	1080.04
773.83	1079.34
774.15	1078.99
774.48	1081.12
774.81	1081.82
775.13	1084.02
775.46	1085.05
775.79	1083.97
776.11	1084.39
776.44	1083.27
776.77	1084.72
777.09	1085.12
777.42	1087.39
777.74	1083.50
778.07	1080.67
778.40	1077.89
778.72	1076.51
779.05	1075.24
779.37	1078.36
779.70	1082.12
780.03	1079.97
780.35	1082.59
780.68	1083.06
781.00	1081.94
781.33	1082.24
781.65	1084.09
781.98	1082.97
782.31	1081.80
782.63	1079.95
782.96	1079.36
783.28	1078.43
783.61	1078.17
783.93	1077.79
784.26	1074.89
784.58	1071.19
784.91	1073.53
785.23	1072.01
785.56	1071.19
785.88	1072.20
786.21	1072.22
786.53	1068.34
786.86	1068.38
787.18	1068.55
787.51	1073.72
787.83	1076.46
788.16	1078.80
788.48	1080.48
788.81	1081.70
789.13	1079.08
789.46	1076.83
789.78	1076.39
790.10	1076.23
790.43	1073.86
790.75	1074.96
791.08	1074.17
791.40	1075.80
791.73	1076.81
792.05	1078.78
792.37	1077.28
792.70	1080.11
793.02	1078.07
793.35	1076.48
793.67	1077.30
793.99	1077.75
794.32	1076.62
794.64	1077.98
794.96	1077.00
795.29	1078.05
795.61	1077.30
795.93	1079.27
796.26	1077.14
796.58	1077.91
796.91	1075.52
797.23	1077.04
797.55	1076.53
797.87	1079.64
798.20	1079.92
798.52	1080.77
798.84	1081.87
799.17	1081.47
799.49	1078.75
799.81	1078.12
800.14	1077.61
800.46	1077.93
800.78	1075.10
801.10	1076.48
801.43	1077.96
801.75	1079.53
802.07	1077.07
802.40	1078.50
802.72	1079.06
803.04	1077.51
803.36	1079.17
803.69	1079.62
804.01	1083.90
804.33	1084.37
804.65	1084.14
804.97	1083.55
805.30	1081.73
805.62	1077.11
805.94	1077.54
806.26	1077.79
806.58	1075.73
806.91	1077.79
807.23	1076.62
807.55	1074.59
807.87	1075.29
808.19	1075.57
808.52	1074.56
808.84	1075.57
809.16	1073.35
809.48	1073.79
809.80	1072.60
810.12	1073.51
810.44	1077.28
810.77	1080.77
811.09	1080.09
811.41	1080.04
811.73	1078.94
812.05	1079.24
812.37	1077.89
812.69	1076.15
813.01	1076.55
813.33	1076.20
813.66	1073.58
813.98	1073.98
814.30	1076.93
814.62	1078.78
814.94	1078.19
815.26	1077.25
815.58	1080.30
815.90	1080.58
816.22	1082.15
816.54	1081.37
816.86	1081.44
817.18	1079.64
817.50	1080.95
817.82	1078.73
818.14	1083.62
818.46	1085.17
818.78	1082.97
819.10	1079.03
819.42	1080.60
819.74	1077.21
820.06	1077.86
820.38	1079.71
820.70	1080.53
821.02	1076.23
821.34	1077.18
821.66	1074.63
821.98	1074.33
822.30	1072.74
822.62	1074.54
822.94	1076.01
823.26	1076.15
823.58	1076.60
823.90	1075.17
824.22	1074.14
824.54	1072.50
824.86	1071.59
825.18	1070.05
825.50	1070.44
825.81	1073.30
826.13	1074.31
826.45	1074.59
826.77	1074.89
827.09	1078.05
827.41	1076.83
827.73	1076.81
828.05	1077.16
828.36	1073.35
828.68	1073.32
829.00	1075.10
829.32	1077.51
829.64	1082.94
829.96	1082.17
830.28	1082.66
830.59	1080.77
830.91	1079.43
831.23	1074.75
831.55	1082.10
831.87	1082.36
832.19	1082.08
832.50	1082.43
832.82	1081.51
833.14	1077.14
833.46	1077.75
833.78	1077.68
834.09	1075.83
834.41	1075.87
834.73	1080.46
835.05	1081.80
835.36	1079.24
835.68	1081.66
836.00	1081.66
836.32	1079.31
836.63	1077.58
836.95	1080.86
837.27	1076.20
837.59	1081.19
837.90	1080.02
838.22	1079.71
838.54	1081.16
838.85	1083.53
839.17	1081.07
839.49	1082.26
839.80	1080.02
840.12	1075.71
840.44	1075.64
840.76	1073.84
841.07	1072.90
841.39	1070.98
841.71	1073.95
842.02	1073.79
842.34	1074.56
842.65	1075.50
842.97	1078.80
843.29	1076.37
843.60	1073.79
843.92	1076.13
844.24	1079.03
844.55	1080.91
844.87	1083.76
845.18	1084.74
845.50	1080.39
845.82	1076.72
846.13	1075.13
846.45	1074.38
846.76	1073.51
847.08	1076.93
847.40	1076.76
847.71	1075.45
848.03	1076.86
848.34	1078.89
848.66	1074.05
848.97	1071.73
849.29	1071.80
849.60	1067.87
849.92	1070.87
850.24	1075.57
850.55	1079.27
850.87	1080.25
851.18	1085.33
851.50	1084.16
851.81	1083.95
852.13	1082.50
852.44	1080.95
852.76	1080.74
853.07	1075.50
853.39	1073.95
853.70	1076.13
854.01	1078.92
854.33	1075.76
854.64	1081.42
854.96	1081.61
855.27	1078.99
855.59	1077.79
855.90	1078.71
856.22	1079.08
856.53	1080.06
856.84	1078.94
857.16	1080.37
857.47	1080.98
857.79	1080.56
858.10	1080.06
858.41	1084.81
858.73	1083.83
859.04	1083.71
859.36	1082.12
859.67	1082.99
859.98	1080.67
860.30	1078.85
860.61	1078.45
860.92	1076.44
861.24	1075.57
861.55	1074.73
861.87	1075.13
862.18	1075.48
862.49	1076.72
862.81	1075.66
863.12	1075.43
863.43	1079.27
863.74	1078.94
864.06	1080.98
864.37	1079.81
864.68	1080.74
865.00	1080.81
865.31	1078.66
865.62	1077.21
865.94	1081.33
866.25	1079.88
866.56	1077.35
866.87	1077.86
867.19	1078.82
867.50	1074.52
867.81	1077.21
868.12	1075.76
868.44	1075.10
868.75	1073.30
869.06	1075.66
869.37	1074.87
869.68	1076.65
870.00	1079.97
870.31	1082.71
870.62	1084.25
870.93	1085.52
871.24	1084.74
871.56	1083.06
871.87	1081.26
872.18	1080.13
872.49	1076.37
872.80	1075.29
873.12	1076.76
873.43	1078.03
873.74	1078.17
874.05	1080.06
874.36	1081.30
874.67	1081.35
874.98	1077.21
875.29	1079.15
875.61	1077.70
875.92	1078.40
876.23	1079.48
876.54	1083.93
876.85	1082.19
877.16	1084.39
877.47	1084.74
877.78	1079.83
878.09	1079.60
878.40	1078.00
878.72	1074.63
879.03	1075.29
879.34	1078.68
879.65	1074.96
879.96	1077.58
880.27	1079.46
880.58	1078.40
880.89	1080.44
881.20	1081.42
881.51	1078.71
881.82	1078.94
882.13	1077.54
882.44	1074.77
882.75	1076.95
883.06	1080.34
883.37	1080.32
883.68	1080.51
883.99	1081.37
884.30	1082.05
884.61	1078.50
884.92	1079.74
885.23	1079.83
885.54	1079.17
885.85	1077.51
886.16	1076.97
886.47	1078.24
886.78	1075.03
887.08	1075.87
887.39	1076.90
887.70	1080.11
888.01	1076.11
888.32	1078.24
888.63	1075.69
888.94	1076.06
889.25	1076.27
889.56	1077.68
889.87	1079.85
890.17	1080.53
890.48	1081.09
890.79	1077.93
891.10	1079.53
891.41	1080.88
891.72	1081.09
892.03	1077.09
892.34	1075.97
892.64	1073.56
892.95	1070.40
893.26	1071.87
893.57	1074.14
893.88	1076.04
894.18	1074.21
894.49	1074.07
894.80	1072.83
895.11	1073.67
895.42	1073.04
895.72	1074.61
896.03	1076.34
896.34	1076.32
896.65	1076.08
896.96	1077.72
897.26	1080.13
897.57	1075.34
897.88	1075.38
898.19	1076.90
898.49	1075.76
898.80	1074.28
899.11	1079.46
899.41	1080.77
899.72	1081.73
900.03	1080.93
900.34	1081.80
900.64	1079.85
900.95	1075.34
901.26	1070.54
901.56	1073.28
901.87	1074.52
902.18	1074.26
902.48	1077.02
902.79	1080.16
903.10	1076.39
903.40	1075.92
903.71	1078.38
904.02	1077.33
904.32	1074.84
904.63	1072.20
904.94	1071.33
905.24	1068.76
905.55	1070.44
905.85	1070.00
906.16	1076.39
906.47	1075.05
906.77	1078.31
907.08	1077.00
907.38	1078.73
907.69	1078.10
908.00	1079.83
908.30	1075.22
908.61	1074.24
908.91	1074.03
909.22	1072.48
909.52	1069.88
909.83	1073.98
910.14	1075.62
910.44	1075.80
910.75	1078.31
911.05	1084.18
911.36	1084.74
911.66	1086.78
911.97	1086.90
912.27	1083.13
912.58	1079.62
912.88	1077.33
913.19	1077.09
913.49	1074.63
913.80	1075.52
914.10	1072.18
914.41	1071.71
914.71	1069.91
915.01	1073.58
915.32	1077.04
915.62	1083.25
915.93	1078.28
916.23	1078.99
916.54	1078.89
916.84	1075.85
917.15	1074.26
917.45	1077.91
917.75	1078.24
918.06	1078.85
918.36	1080.32
918.67	1078.17
918.97	1080.32
919.27	1081.44
919.58	1079.78
919.88	1079.13
920.18	1081.42
920.49	1080.95
920.79	1081.07
921.10	1080.72
921.40	1079.34
921.70	1080.84
922.01	1081.02
922.31	1080.91
922.61	1082.10
922.92	1083.41
923.22	1080.93
923.52	1078.66
923.82	1078.68
924.13	1077.56
924.43	1077.09
924.73	1076.06
925.04	1080.91
925.34	1079.99
925.64	1079.60
925.94	1081.68
926.25	1082.40
926.55	1079.85
926.85	1080.58
927.15	1079.22
927.46	1077.35
927.76	1078.61
928.06	1078.57
928.36	1076.93
928.67	1078.59
928.97	1077.04
929.27	1074.12
929.57	1073.00
929.87	1074.03
930.18	1074.98
930.48	1075.94
930.78	1077.86
931.08	1078.40
931.38	1075.76
931.69	1074.96
931.99	1073.37
932.29	1073.58
932.59	1074.98
932.89	1078.94
933.19	1079.43
933.49	1083.34
933.80	1079.27
934.10	1077.42
934.40	1077.00
934.70	1078.21
935.00	1075.76
935.30	1079.22
935.60	1079.55
935.90	1079.69
936.20	1077.75
936.50	1079.48
936.81	1081.58
937.11	1080.86
937.41	1078.82
937.71	1083.25
938.01	1083.55
938.31	1081.47
938.61	1080.20
938.91	1079.08
939.21	1079.20
939.51	1076.48
939.81	1076.41
940.11	1079.20
940.41	1080.44
940.71	1076.53
941.01	1079.10
941.31	1078.10
941.61	1078.57
941.91	1078.07
942.21	1078.07
942.51	1074.56
942.81	1077.84
943.11	1078.78
943.41	1079.38
943.71	1078.26
944.01	1079.71
944.31	1076.95
944.61	1076.15
944.90	1078.66
945.20	1081.40
945.50	1081.42
945.80	1080.02
946.10	1079.76
946.40	1076.44
946.70	1076.90
947.00	1079.57
947.30	1081.98
947.60	1081.70
947.89	1081.21
948.19	1078.00
948.49	1074.33
948.79	1073.21
949.09	1073.14
949.39	1074.75
949.69	1074.42
949.98	1074.80
950.28	1075.15
950.58	1075.69
950.88	1075.27
951.18	1076.01
951.48	1075.52
951.77	1073.91
952.07	1073.32
952.37	1073.00
952.67	1071.54
952.97	1072.71
953.26	1075.34
953.56	1076.62
953.86	1078.19
954.16	1080.11
954.45	1079.97
954.75	1080.81
955.05	1080.16
955.35	1076.62
955.64	1076.48
955.94	1078.50
956.24	1076.97
956.54	1075.10
956.83	1079.92
957.13	1080.74
957.43	1079.57
957.72	1079.01
958.02	1080.37
958.32	1077.16
958.61	1074.59
958.91	1073.79
959.21	1073.86
959.50	1074.87
959.80	1076.60
960.10	1080.65
960.39	1080.77
960.69	1079.29
960.99	1079.17
961.28	1078.64
961.58	1077.25
961.87	1077.93
962.17	1080.98
962.47	1080.16
962.76	1076.95
963.06	1078.82
963.36	1075.69
963.65	1073.53
963.95	1074.61
964.24	1080.23
964.54	1079.48
964.83	1084.65
965.13	1084.81
965.42	1083.57
965.72	1079.85
966.02	1076.88
966.31	1073.63
966.61	1072.74
966.90	1072.08
967.20	1070.47
967.49	1072.20
967.79	1075.15
968.08	1075.17
968.38	1075.41
968.67	1078.26
968.97	1080.39
969.26	1079.71
969.56	1079.43
969.85	1079.90
970.15	1078.43
970.44	1074.33
970.74	1076.76
971.03	1080.65
971.32	1079.97
971.62	1082.66
971.91	1083.27
972.21	1082.36
972.50	1080.98
972.80	1083.01
973.09	1082.05
973.38	1082.59
973.68	1078.07
973.97	1075.76
974.27	1075.20
974.56	1074.59
974.85	1075.17
975.15	1078.17
975.44	1079.90
975.73	1082.54
976.03	1079.81
976.32	1077.30
976.61	1074.05
976.91	1075.55
977.20	1072.69
977.49	1074.96
977.79	1078.05
978.08	1082.33
978.37	1080.93
978.67	1082.59
978.96	1085.56
979.25	1085.19
979.55	1085.77
979.84	1086.80
980.13	1084.98
980.42	1082.12
980.72	1083.79
981.01	1083.64
981.30	1086.24
981.59	1086.57
981.89	1090.15
982.18	1088.51
982.47	1084.53
982.76	1080.23
983.06	1079.76
983.35	1072.95
983.64	1071.92
983.93	1073.86
984.22	1073.58
984.52	1071.05
984.81	1074.89
985.10	1074.75
985.39	1073.67
985.68	1074.61
985.97	1077.00
986.27	1077.04
986.56	1076.44
986.85	1077.93
987.14	1077.68
987.43	1077.63
987.72	1077.72
988.01	1079.88
988.31	1079.43
988.60	1077.49
988.89	1074.70
989.18	1075.05
989.47	1076.41
989.76	1073.09
990.05	1076.37
990.34	1079.92
990.63	1078.96
990.92	1074.61
991.21	1082.22
991.51	1084.04
991.80	1083.88
992.09	1084.25
992.38	1085.68
992.67	1079.36
992.96	1075.20
993.25	1076.76
993.54	1077.25
993.83	1080.18
994.12	1080.72
994.41	1081.00
994.70	1081.82
994.99	1080.65
995.28	1079.41
995.57	1080.46
995.86	1082.73
996.15	1082.45
996.44	1082.87
996.73	1083.55
997.02	1083.48
997.31	1081.14
997.59	1075.01
997.88	1074.56
998.17	1071.75
998.46	1073.81
998.75	1073.95
999.04	1079.29
999.33	1081.26
999.62	1082.59
999.91	1077.25
1000.20	1079.90
1000.49	1076.01
1000.77	1072.29
1001.06	1071.99
1001.35	1073.95
1001.64	1072.92
1001.93	1074.94
1002.22	1074.98
1002.51	1074.28
1002.79	1077.75
1003.08	1076.97
1003.37	1075.90
1003.66	1079.31
1003.95	1080.04
1004.23	1078.36
1004.52	1078.85
1004.81	1080.23
1005.10	1078.96
1005.39	1081.30
1005.67	1081.94
1005.96	1078.10
1006.25	1076.08
1006.54	1078.21
1006.83	1073.63
1007.11	1072.06
1007.40	1076.46
1007.69	1075.13
1007.97	1072.71
1008.26	1073.39
1008.55	1074.35
1008.84	1073.86
1009.12	1078.61
1009.41	1078.00
1009.70	1082.85
1009.98	1081.98
1010.27	1081.63
1010.56	1080.18
1010.85	1082.50
1011.13	1077.89
1011.42	1076.39
1011.71	1070.91
1011.99	1072.39
1012.28	1072.01
1012.56	1073.60
1012.85	1072.36
1013.14	1078.68
1013.42	1074.84
1013.71	1072.81
1014.00	1072.71
1014.28	1073.21
1014.57	1071.31
1014.85	1072.08
1015.14	1071.08
1015.43	1073.86
1015.71	1075.59
1016.00	1075.73
1016.28	1077.16
1016.57	1082.40
1016.85	1079.57
1017.14	1080.34
1017.43	1080.67
1017.71	1082.54
1018.00	1079.85
1018.28	1081.09
1018.57	1081.56
1018.85	1082.59
1019.14	1077.04
1019.42	1075.13
1019.71	1074.77
1019.99	1074.07
1020.28	1072.64
1020.56	1075.45
1020.85	1076.06
1021.13	1075.94
1021.42	1079.97
1021.70	1081.00
1021.99	1083.34
1022.27	1085.07
1022.55	1087.06
1022.84	1081.56
>>>>>End Processed Spectral Data<<<<<
