SpectraSuite Data File
++++++++++++++++++++++++++++++++++++
Date: Mon Aug 26 10:21:55 PDT 2019
User: corrico
Dark Spectrum Present: No
Reference Spectrum Present: No
Number of Sampled Component Spectra: 1
Spectrometers: USB2+H06089
Integration Time (usec): 2000 (USB2+H06089)
Spectra Averaged: 20 (USB2+H06089)
Boxcar Smoothing: 2 (USB2+H06089)
Correct for Electrical Dark: No (USB2+H06089)
Strobe/Lamp Enabled: No (USB2+H06089)
Correct for Detector Non-linearity: No (USB2+H06089)
Correct for Stray Light: No (USB2+H06089)
Number of Pixels in Processed Spectrum: 2048
>>>>>Begin Processed Spectral Data<<<<<
339.70	1026.09
340.07	1026.09
340.45	991.87
340.82	970.85
341.19	947.54
341.57	922.41
341.94	910.56
342.31	901.64
342.69	894.51
343.06	890.81
343.43	888.47
343.81	892.84
344.18	897.01
344.55	902.51
344.93	907.43
345.30	917.30
345.67	918.33
346.04	924.77
346.42	933.08
346.79	943.05
347.16	946.47
347.54	958.05
347.91	966.52
348.28	971.44
348.65	979.26
349.03	991.68
349.40	1001.45
349.77	1008.96
350.14	1018.95
350.52	1026.09
350.89	1030.70
351.26	1037.07
351.63	1042.57
352.01	1049.33
352.38	1054.04
352.75	1058.67
353.12	1061.50
353.50	1063.24
353.87	1065.74
354.24	1065.88
354.61	1068.13
354.98	1068.15
355.36	1070.05
355.73	1070.44
356.10	1073.46
356.47	1073.56
356.84	1075.73
357.22	1079.20
357.59	1077.68
357.96	1077.09
358.33	1081.05
358.70	1079.43
359.08	1076.95
359.45	1076.83
359.82	1078.36
360.19	1074.80
360.56	1077.14
360.94	1077.93
361.31	1078.94
361.68	1076.93
362.05	1075.66
362.42	1073.46
362.79	1074.17
363.16	1072.57
363.54	1071.33
363.91	1070.07
364.28	1067.40
364.65	1067.38
365.02	1067.89
365.39	1068.38
365.76	1064.92
366.14	1065.81
366.51	1064.31
366.88	1063.63
367.25	1061.50
367.62	1066.54
367.99	1067.40
368.36	1065.60
368.73	1065.55
369.10	1067.26
369.48	1064.64
369.85	1062.42
370.22	1062.06
370.59	1062.70
370.96	1062.98
371.33	1064.22
371.70	1068.08
372.07	1069.06
372.44	1068.08
372.81	1066.86
373.18	1067.80
373.55	1067.12
373.93	1064.69
374.30	1064.71
374.67	1068.90
375.04	1070.05
375.41	1068.55
375.78	1072.83
376.15	1074.96
376.52	1072.76
376.89	1069.84
377.26	1069.02
377.63	1067.47
378.00	1062.93
378.37	1062.72
378.74	1064.03
379.11	1064.52
379.48	1064.19
379.85	1070.94
380.22	1071.08
380.59	1070.02
380.96	1072.48
381.33	1076.83
381.70	1071.73
382.07	1074.66
382.44	1076.72
382.81	1078.00
383.18	1075.52
383.55	1076.08
383.92	1071.03
384.29	1070.72
384.66	1065.11
385.03	1062.09
385.40	1067.59
385.77	1066.63
386.14	1067.71
386.51	1072.62
386.88	1077.70
387.25	1073.60
387.62	1079.01
387.99	1081.00
388.36	1081.19
388.73	1078.99
389.10	1079.74
389.46	1076.58
389.83	1074.84
390.20	1072.22
390.57	1071.75
390.94	1074.40
391.31	1075.69
391.68	1075.17
392.05	1079.92
392.42	1080.74
392.79	1076.34
393.16	1072.83
393.53	1071.22
393.89	1065.76
394.26	1064.48
394.63	1067.61
395.00	1067.78
395.37	1070.82
395.74	1073.88
396.11	1074.05
396.48	1073.04
396.84	1075.41
397.21	1073.21
397.58	1071.15
397.95	1074.28
398.32	1074.66
398.69	1078.00
399.06	1079.41
399.42	1081.02
399.79	1079.53
400.16	1080.44
400.53	1077.98
400.90	1075.80
401.27	1073.63
401.64	1075.10
402.00	1071.92
402.37	1071.12
402.74	1073.51
403.11	1076.34
403.48	1075.62
403.84	1076.81
404.21	1079.48
404.58	1080.25
404.95	1081.56
405.32	1076.97
405.68	1078.33
406.05	1078.10
406.42	1077.04
406.79	1074.28
407.16	1077.51
407.52	1076.48
407.89	1072.29
408.26	1071.38
408.63	1073.81
408.99	1074.45
409.36	1074.42
409.73	1078.47
410.10	1078.96
410.47	1076.86
410.83	1078.05
411.20	1078.99
411.57	1079.36
411.94	1082.15
412.30	1078.92
412.67	1075.87
413.04	1077.86
413.40	1078.73
413.77	1074.94
414.14	1082.26
414.51	1086.41
414.87	1081.89
415.24	1081.19
415.61	1083.22
415.97	1079.76
416.34	1077.58
416.71	1083.41
417.08	1081.40
417.44	1080.84
417.81	1083.08
418.18	1085.24
418.54	1083.79
418.91	1086.10
419.28	1088.26
419.64	1088.04
420.01	1086.73
420.38	1084.65
420.74	1083.36
421.11	1083.11
421.48	1084.84
421.84	1087.37
422.21	1089.45
422.58	1091.34
422.94	1092.47
423.31	1093.50
423.68	1093.52
424.04	1097.59
424.41	1100.64
424.77	1104.38
425.14	1103.91
425.51	1105.95
425.87	1104.26
426.24	1106.00
426.61	1107.96
426.97	1111.38
427.34	1112.11
427.70	1115.45
428.07	1118.94
428.44	1119.83
428.80	1121.96
429.17	1127.06
429.53	1128.51
429.90	1131.13
430.27	1134.57
430.63	1137.85
431.00	1142.23
431.36	1147.07
431.73	1149.72
432.09	1153.63
432.46	1160.84
432.83	1167.88
433.19	1177.20
433.56	1185.90
433.92	1194.96
434.29	1203.71
434.65	1211.27
435.02	1216.56
435.38	1228.80
435.75	1239.45
436.11	1251.93
436.48	1263.16
436.84	1279.31
437.21	1289.21
437.57	1306.04
437.94	1319.73
438.30	1338.74
438.67	1357.89
439.03	1379.56
439.40	1397.25
439.76	1419.84
440.13	1441.44
440.49	1469.62
440.86	1497.85
441.22	1527.50
441.59	1557.32
441.95	1592.66
442.32	1622.44
442.68	1655.93
443.05	1692.72
443.41	1739.65
443.78	1783.32
444.14	1830.28
444.51	1876.90
444.87	1935.30
445.24	1976.37
445.60	2027.18
445.96	2081.63
446.33	2146.97
446.69	2207.62
447.06	2283.15
447.42	2360.85
447.79	2442.58
448.15	2531.36
448.51	2614.12
448.88	2709.03
449.24	2795.25
449.61	2900.67
449.97	3009.98
450.33	3131.61
450.70	3243.42
451.06	3379.66
451.43	3516.49
451.79	3656.76
452.15	3808.57
452.52	3978.23
452.88	4145.51
453.24	4319.55
453.61	4518.52
453.97	4717.47
454.34	4919.24
454.70	5149.93
455.06	5376.68
455.43	5604.55
455.79	5824.82
456.15	6077.11
456.52	6326.84
456.88	6630.88
457.24	6918.93
457.61	7270.99
457.97	7590.47
458.33	7914.66
458.70	8233.28
459.06	8558.03
459.42	8895.51
459.79	9224.82
460.15	9604.95
460.51	9960.66
460.88	10331.99
461.24	10648.59
461.60	11017.77
461.96	11341.67
462.33	11647.04
462.69	11958.38
463.05	12299.54
463.42	12614.25
463.78	12921.44
464.14	13217.50
464.50	13502.29
464.87	13726.73
465.23	13883.33
465.59	14061.73
465.95	14245.76
466.32	14395.75
466.68	14520.33
467.04	14601.22
467.40	14585.02
467.77	14559.82
468.13	14532.13
468.49	14516.26
468.85	14536.83
469.22	14585.12
469.58	14581.28
469.94	14548.72
470.30	14476.49
470.66	14342.97
471.03	14146.29
471.39	13999.54
471.75	13777.28
472.11	13544.75
472.47	13354.28
472.84	13150.11
473.20	12898.36
473.56	12726.22
473.92	12543.61
474.28	12390.14
474.65	12246.81
475.01	12075.97
475.37	11871.76
475.73	11668.69
476.09	11446.88
476.45	11247.19
476.81	11073.66
477.18	10915.11
477.54	10772.41
477.90	10631.98
478.26	10479.70
478.62	10330.68
478.98	10153.34
479.34	10013.89
479.71	9838.35
480.07	9682.45
480.43	9548.92
480.79	9421.90
481.15	9260.82
481.51	9149.93
481.87	9039.38
482.23	8874.52
482.59	8744.50
482.96	8621.74
483.32	8487.46
483.68	8341.93
484.04	8221.58
484.40	8068.32
484.76	7929.64
485.12	7790.33
485.48	7665.84
485.84	7514.69
486.20	7370.02
486.56	7222.05
486.92	7078.53
487.28	6937.04
487.64	6806.72
488.00	6687.71
488.37	6549.50
488.73	6405.32
489.09	6235.23
489.45	6090.92
489.81	5956.27
490.17	5843.38
490.53	5731.53
490.89	5614.34
491.25	5486.47
491.61	5351.19
491.97	5210.76
492.33	5074.75
492.69	4954.87
493.05	4838.78
493.41	4725.89
493.77	4610.69
494.13	4503.82
494.49	4407.88
494.85	4313.12
495.21	4229.65
495.57	4149.77
495.93	4057.30
496.29	3963.98
496.64	3886.16
497.00	3788.48
497.36	3690.30
497.72	3606.55
498.08	3537.93
498.44	3456.46
498.80	3379.41
499.16	3311.83
499.52	3242.60
499.88	3167.17
500.24	3105.42
500.60	3056.20
500.96	3002.67
501.32	2944.46
501.68	2882.63
502.03	2818.64
502.39	2751.77
502.75	2693.68
503.11	2648.29
503.47	2609.02
503.83	2570.31
504.19	2534.73
504.55	2493.65
504.91	2449.04
505.26	2401.62
505.62	2357.15
505.98	2316.87
506.34	2277.79
506.70	2236.22
507.06	2201.13
507.42	2167.45
507.78	2128.81
508.13	2093.26
508.49	2064.77
508.85	2038.84
509.21	2009.89
509.57	1980.61
509.93	1951.75
510.28	1920.83
510.64	1889.40
511.00	1858.13
511.36	1828.40
511.72	1806.68
512.07	1784.17
512.43	1759.40
512.79	1741.38
513.15	1721.93
513.51	1692.93
513.86	1674.07
514.22	1657.90
514.58	1635.59
514.94	1616.44
515.30	1603.74
515.65	1582.41
516.01	1563.34
516.37	1548.26
516.73	1537.01
517.08	1522.26
517.44	1507.70
517.80	1493.38
518.16	1482.52
518.51	1466.16
518.87	1455.06
519.23	1445.56
519.59	1437.56
519.94	1421.62
520.30	1413.87
520.66	1407.86
521.01	1398.59
521.37	1390.86
521.73	1383.75
522.09	1375.60
522.44	1362.80
522.80	1353.70
523.16	1343.77
523.51	1338.04
523.87	1327.18
524.23	1317.60
524.58	1315.05
524.94	1306.23
525.30	1296.38
525.65	1289.68
526.01	1284.06
526.37	1272.97
526.72	1267.63
527.08	1262.27
527.44	1256.66
527.79	1250.03
528.15	1245.16
528.51	1239.29
528.86	1236.29
529.22	1231.89
529.58	1228.31
529.93	1223.61
530.29	1220.21
530.65	1212.33
531.00	1208.58
531.36	1206.38
531.71	1203.39
532.07	1198.03
532.43	1193.77
532.78	1189.51
533.14	1183.82
533.49	1180.05
533.85	1177.06
534.21	1175.37
534.56	1173.92
534.92	1172.02
535.27	1166.52
535.63	1163.81
535.98	1159.17
536.34	1155.71
536.69	1153.67
537.05	1154.75
537.41	1150.77
537.76	1147.96
538.12	1144.94
538.47	1141.64
538.83	1137.95
539.18	1138.16
539.54	1137.64
539.89	1137.03
540.25	1134.55
540.60	1134.41
540.96	1131.88
541.31	1130.64
541.67	1134.48
542.02	1132.98
542.38	1130.53
542.73	1129.92
543.09	1131.79
543.44	1124.16
543.80	1126.10
544.15	1124.53
544.51	1123.06
544.86	1121.68
545.22	1121.44
545.57	1119.22
545.93	1122.36
546.28	1121.05
546.64	1118.45
546.99	1117.47
547.35	1116.88
547.70	1113.67
548.05	1115.85
548.41	1113.14
548.76	1112.67
549.12	1111.75
549.47	1109.46
549.83	1106.49
550.18	1107.59
550.53	1105.18
550.89	1102.21
551.24	1098.55
551.60	1098.83
551.95	1097.66
552.30	1097.57
552.66	1096.45
553.01	1097.31
553.37	1098.88
553.72	1100.00
554.07	1100.73
554.43	1103.89
554.78	1103.31
555.13	1098.46
555.49	1096.35
555.84	1097.17
556.19	1094.72
556.55	1093.40
556.90	1095.86
557.26	1095.16
557.61	1093.03
557.96	1093.73
558.32	1099.40
558.67	1096.78
559.02	1097.78
559.37	1093.03
559.73	1091.74
560.08	1087.06
560.43	1086.03
560.79	1087.20
561.14	1091.95
561.49	1092.82
561.85	1092.09
562.20	1094.01
562.55	1088.96
562.90	1089.54
563.26	1089.82
563.61	1092.52
563.96	1091.91
564.32	1095.30
564.67	1091.60
565.02	1089.29
565.37	1088.04
565.73	1085.84
566.08	1085.10
566.43	1084.37
566.78	1086.41
567.14	1082.24
567.49	1081.89
567.84	1081.12
568.19	1082.90
568.54	1079.43
568.90	1085.63
569.25	1086.85
569.60	1088.35
569.95	1088.26
570.31	1092.61
570.66	1088.63
571.01	1086.57
571.36	1085.19
571.71	1082.15
572.06	1078.12
572.42	1079.74
572.77	1082.97
573.12	1083.90
573.47	1087.39
573.82	1088.19
574.18	1085.45
574.53	1083.25
574.88	1082.45
575.23	1080.39
575.58	1077.04
575.93	1080.44
576.28	1077.61
576.64	1075.41
576.99	1077.37
577.34	1076.93
577.69	1073.53
578.04	1076.79
578.39	1076.60
578.74	1077.79
579.09	1081.49
579.44	1081.23
579.80	1082.99
580.15	1082.45
580.50	1079.41
580.85	1079.85
581.20	1080.84
581.55	1080.46
581.90	1083.06
582.25	1081.37
582.60	1080.48
582.95	1079.83
583.30	1081.91
583.65	1081.58
584.00	1084.51
584.35	1083.46
584.71	1081.44
585.06	1076.72
585.41	1076.53
585.76	1074.38
586.11	1074.70
586.46	1080.04
586.81	1078.75
587.16	1075.69
587.51	1074.61
587.86	1075.87
588.21	1073.00
588.56	1078.54
588.91	1080.46
589.26	1083.64
589.61	1082.73
589.96	1083.25
590.31	1080.16
590.66	1079.13
591.01	1079.71
591.36	1080.48
591.71	1080.72
592.06	1078.05
592.41	1079.53
592.76	1079.06
593.10	1081.33
593.45	1081.96
593.80	1082.78
594.15	1082.01
594.50	1081.98
594.85	1078.71
595.20	1075.97
595.55	1078.87
595.90	1077.70
596.25	1077.40
596.60	1078.05
596.95	1078.54
597.30	1077.84
597.64	1090.46
597.99	1089.73
598.34	1089.66
598.69	1091.34
599.04	1090.29
599.39	1078.43
599.74	1077.33
600.09	1075.48
600.44	1075.31
600.78	1072.43
601.13	1072.06
601.48	1070.30
601.83	1071.05
602.18	1070.63
602.53	1072.88
602.88	1074.96
603.22	1078.92
603.57	1079.13
603.92	1076.76
604.27	1076.23
604.62	1077.91
604.97	1075.55
605.31	1075.76
605.66	1076.30
606.01	1075.99
606.36	1076.01
606.71	1077.37
607.05	1077.61
607.40	1078.92
607.75	1078.99
608.10	1076.69
608.44	1077.11
608.79	1076.74
609.14	1075.22
609.49	1077.63
609.84	1077.75
610.18	1078.73
610.53	1079.46
610.88	1082.54
611.23	1081.68
611.57	1078.71
611.92	1076.18
612.27	1076.25
612.62	1073.67
612.96	1073.56
613.31	1076.46
613.66	1078.40
614.00	1076.67
614.35	1077.86
614.70	1079.53
615.05	1077.75
615.39	1075.64
615.74	1080.53
616.09	1082.19
616.43	1077.79
616.78	1077.93
617.13	1080.34
617.47	1078.54
617.82	1077.89
618.17	1078.66
618.51	1081.54
618.86	1080.63
619.21	1080.18
619.55	1081.87
619.90	1085.28
620.25	1086.17
620.59	1086.38
620.94	1085.17
621.29	1081.42
621.63	1081.16
621.98	1077.49
622.32	1077.35
622.67	1078.03
623.02	1081.63
623.36	1079.69
623.71	1079.34
624.05	1076.37
624.40	1075.27
624.75	1073.77
625.09	1076.23
625.44	1078.03
625.78	1079.08
626.13	1082.52
626.48	1082.36
626.82	1078.33
627.17	1081.49
627.51	1082.03
627.86	1079.46
628.20	1079.08
628.55	1082.26
628.89	1080.04
629.24	1080.74
629.58	1081.91
629.93	1079.69
630.28	1079.17
630.62	1077.18
630.97	1079.41
631.31	1078.14
631.66	1080.09
632.00	1082.59
632.35	1082.31
632.69	1079.76
633.04	1080.30
633.38	1079.64
633.73	1075.80
634.07	1079.92
634.42	1080.88
634.76	1081.14
635.11	1080.16
635.45	1080.41
635.79	1078.73
636.14	1080.11
636.48	1077.86
636.83	1079.83
637.17	1079.92
637.52	1079.20
637.86	1073.88
638.21	1073.95
638.55	1071.80
638.89	1071.85
639.24	1071.43
639.58	1075.08
639.93	1073.21
640.27	1074.42
640.61	1076.97
640.96	1078.85
641.30	1080.20
641.65	1082.40
641.99	1082.12
642.33	1080.84
642.68	1081.70
643.02	1080.41
643.37	1081.42
643.71	1081.58
644.05	1080.56
644.40	1078.45
644.74	1078.96
645.08	1077.63
645.43	1077.47
645.77	1074.35
646.11	1073.51
646.46	1071.22
646.80	1070.84
647.14	1071.05
647.49	1076.76
647.83	1076.15
648.17	1080.44
648.52	1081.75
648.86	1081.51
649.20	1078.68
649.55	1076.37
649.89	1073.44
650.23	1075.41
650.57	1077.25
650.92	1078.64
651.26	1081.87
651.60	1080.93
651.95	1078.82
652.29	1079.69
652.63	1076.86
652.97	1075.15
653.32	1076.30
653.66	1072.74
654.00	1072.62
654.34	1074.21
654.69	1078.40
655.03	1078.57
655.37	1084.00
655.71	1083.29
656.05	1083.06
656.40	1080.23
656.74	1079.48
657.08	1078.47
657.42	1077.00
657.76	1077.49
658.11	1077.82
658.45	1079.17
658.79	1077.35
659.13	1078.96
659.47	1078.05
659.82	1077.51
660.16	1076.76
660.50	1074.03
660.84	1071.59
661.18	1072.15
661.52	1076.23
661.87	1076.62
662.21	1080.13
662.55	1080.37
662.89	1082.10
663.23	1080.16
663.57	1078.10
663.91	1077.40
664.25	1078.07
664.60	1075.62
664.94	1073.00
665.28	1074.26
665.62	1074.45
665.96	1073.60
666.30	1076.15
666.64	1079.55
666.98	1077.02
667.32	1075.80
667.66	1074.84
668.01	1073.63
668.35	1071.03
668.69	1074.26
669.03	1078.26
669.37	1077.00
669.71	1076.44
670.05	1077.58
670.39	1076.55
670.73	1074.17
671.07	1075.57
671.41	1075.22
671.75	1073.51
672.09	1074.31
672.43	1070.96
672.77	1073.95
673.11	1072.60
673.45	1072.60
673.79	1073.51
674.13	1074.84
674.47	1071.24
674.81	1073.02
675.15	1072.01
675.49	1071.59
675.83	1071.94
676.17	1077.23
676.51	1072.92
676.85	1073.39
677.19	1073.53
677.53	1074.19
677.87	1075.15
678.21	1081.68
678.55	1080.06
678.89	1077.79
679.23	1080.13
679.57	1075.76
679.90	1071.90
680.24	1073.37
680.58	1076.67
680.92	1077.63
681.26	1080.72
681.60	1081.91
681.94	1084.70
682.28	1081.21
682.62	1079.13
682.96	1075.92
683.29	1077.58
683.63	1074.68
683.97	1077.00
684.31	1076.79
684.65	1075.69
684.99	1074.75
685.33	1075.78
685.67	1072.81
686.00	1072.43
686.34	1074.14
686.68	1073.84
687.02	1072.81
687.36	1073.91
687.70	1071.66
688.03	1068.78
688.37	1069.55
688.71	1069.39
689.05	1072.50
689.39	1075.55
689.72	1074.49
690.06	1072.90
690.40	1072.88
690.74	1067.89
691.08	1067.68
691.41	1070.58
691.75	1070.84
692.09	1072.06
692.43	1072.57
692.76	1069.93
693.10	1068.97
693.44	1071.05
693.78	1071.43
694.11	1075.29
694.45	1078.92
694.79	1077.86
695.13	1074.47
695.46	1076.58
695.80	1075.05
696.14	1074.26
696.48	1075.90
696.81	1078.73
697.15	1075.50
697.49	1075.45
697.82	1073.07
698.16	1072.53
698.50	1070.51
698.83	1071.61
699.17	1072.48
699.51	1076.18
699.84	1077.40
700.18	1077.00
700.52	1074.59
700.85	1073.35
701.19	1072.11
701.53	1071.50
701.86	1075.15
702.20	1078.31
702.54	1079.01
702.87	1078.21
703.21	1078.03
703.55	1076.90
703.88	1074.61
704.22	1070.68
704.55	1073.79
704.89	1075.78
705.23	1074.91
705.56	1078.66
705.90	1077.04
706.23	1074.17
706.57	1073.37
706.91	1076.32
707.24	1072.67
707.58	1079.29
707.91	1080.37
708.25	1078.92
708.58	1075.17
708.92	1074.05
709.26	1073.86
709.59	1074.42
709.93	1076.86
710.26	1076.55
710.60	1078.17
710.93	1074.03
711.27	1071.15
711.60	1066.49
711.94	1066.63
712.27	1068.34
712.61	1071.45
712.94	1070.26
713.28	1072.04
713.61	1075.27
713.95	1073.74
714.28	1071.40
714.62	1072.48
714.95	1073.42
715.29	1074.35
715.62	1073.56
715.96	1076.23
716.29	1079.31
716.63	1080.93
716.96	1078.87
717.29	1079.15
717.63	1078.00
717.96	1075.94
718.30	1075.13
718.63	1076.65
718.97	1077.63
719.30	1078.26
719.63	1076.08
719.97	1077.35
720.30	1074.10
720.64	1074.59
720.97	1075.34
721.30	1080.16
721.64	1076.27
721.97	1074.59
722.31	1074.38
722.64	1074.45
722.97	1074.31
723.31	1077.79
723.64	1080.04
723.97	1078.52
724.31	1080.37
724.64	1078.26
724.98	1074.40
725.31	1071.80
725.64	1070.75
725.98	1066.35
726.31	1064.34
726.64	1066.25
726.97	1067.35
727.31	1069.70
727.64	1073.23
727.97	1074.03
728.31	1072.76
728.64	1075.83
728.97	1075.64
729.31	1075.05
729.64	1076.60
729.97	1081.02
730.30	1079.17
730.64	1074.28
730.97	1073.53
731.30	1072.22
731.63	1070.28
731.97	1070.37
732.30	1075.43
732.63	1076.93
732.96	1079.20
733.30	1077.72
733.63	1078.92
733.96	1077.21
734.29	1072.64
734.63	1073.14
734.96	1073.32
735.29	1069.79
735.62	1072.50
735.95	1074.77
736.29	1071.54
736.62	1070.35
736.95	1071.87
737.28	1072.27
737.61	1073.28
737.94	1074.31
738.28	1075.48
738.61	1075.50
738.94	1074.05
739.27	1073.49
739.60	1072.15
739.93	1070.16
740.27	1073.18
740.60	1073.09
740.93	1071.68
741.26	1072.34
741.59	1073.23
741.92	1069.30
742.25	1070.12
742.58	1072.32
742.91	1072.97
743.25	1074.42
743.58	1075.66
743.91	1077.04
744.24	1076.90
744.57	1076.97
744.90	1079.08
745.23	1079.60
745.56	1077.51
745.89	1076.25
746.22	1075.15
746.55	1074.03
746.88	1073.42
747.21	1074.14
747.54	1074.96
747.87	1076.20
748.20	1076.58
748.53	1075.20
748.87	1071.82
749.20	1071.15
749.53	1074.54
749.86	1074.45
750.19	1076.06
750.52	1078.05
750.85	1081.21
751.18	1076.74
751.51	1075.80
751.84	1075.90
752.16	1075.50
752.49	1072.53
752.82	1073.44
753.15	1076.11
753.48	1076.23
753.81	1076.86
754.14	1073.32
754.47	1072.76
754.80	1070.12
755.13	1069.77
755.46	1073.37
755.79	1076.95
756.12	1077.93
756.45	1077.49
756.78	1078.57
757.11	1072.43
757.43	1073.81
757.76	1072.25
758.09	1070.68
758.42	1071.90
758.75	1073.79
759.08	1073.00
759.41	1077.51
759.74	1076.30
760.07	1076.51
760.39	1078.36
760.72	1077.21
761.05	1073.51
761.38	1076.97
761.71	1074.96
762.04	1076.27
762.36	1076.65
762.69	1074.98
763.02	1074.80
763.35	1073.21
763.68	1071.22
764.01	1070.82
764.33	1071.73
764.66	1072.11
764.99	1077.02
765.32	1077.44
765.65	1078.92
765.97	1080.86
766.30	1084.28
766.63	1079.85
766.96	1078.59
767.28	1074.40
767.61	1073.51
767.94	1067.96
768.27	1067.54
768.59	1066.61
768.92	1070.35
769.25	1070.51
769.58	1069.67
769.90	1070.30
770.23	1070.14
770.56	1070.58
770.89	1070.75
771.21	1073.60
771.54	1072.22
771.87	1074.10
772.19	1072.46
772.52	1071.80
772.85	1070.07
773.17	1074.56
773.50	1074.52
773.83	1073.72
774.15	1073.14
774.48	1075.87
774.81	1069.79
775.13	1068.34
775.46	1070.05
775.79	1071.12
776.11	1072.06
776.44	1073.70
776.77	1074.59
777.09	1077.75
777.42	1078.45
777.74	1077.77
778.07	1079.20
778.40	1080.44
778.72	1079.27
779.05	1078.94
779.37	1077.28
779.70	1080.67
780.03	1080.39
780.35	1077.02
780.68	1075.85
781.00	1074.80
781.33	1071.85
781.65	1072.90
781.98	1076.53
782.31	1078.14
782.63	1080.63
782.96	1082.36
783.28	1081.05
783.61	1078.66
783.93	1078.36
784.26	1076.32
784.58	1072.46
784.91	1070.54
785.23	1070.70
785.56	1070.75
785.88	1072.48
786.21	1072.48
786.53	1071.64
786.86	1074.61
787.18	1073.44
787.51	1074.47
787.83	1076.27
788.16	1079.76
788.48	1078.80
788.81	1078.14
789.13	1075.97
789.46	1075.24
789.78	1072.90
790.10	1070.61
790.43	1071.57
790.75	1072.32
791.08	1073.67
791.40	1074.42
791.73	1071.50
792.05	1071.82
792.37	1070.82
792.70	1068.78
793.02	1069.98
793.35	1071.94
793.67	1073.51
793.99	1073.42
794.32	1074.75
794.64	1075.50
794.96	1078.50
795.29	1075.66
795.61	1075.78
795.93	1078.64
796.26	1077.70
796.58	1076.37
796.91	1077.86
797.23	1075.64
797.55	1072.62
797.87	1070.00
798.20	1068.29
798.52	1067.45
798.84	1071.12
799.17	1073.93
799.49	1075.20
799.81	1072.36
800.14	1071.47
800.46	1070.00
800.78	1064.10
801.10	1066.16
801.43	1068.85
801.75	1072.57
802.07	1073.37
802.40	1075.90
802.72	1074.05
803.04	1075.64
803.36	1075.29
803.69	1075.87
804.01	1075.66
804.33	1074.31
804.65	1073.02
804.97	1072.15
805.30	1071.33
805.62	1075.01
805.94	1077.93
806.26	1075.94
806.58	1072.32
806.91	1070.40
807.23	1067.85
807.55	1067.99
807.87	1071.17
808.19	1075.22
808.52	1077.02
808.84	1077.72
809.16	1074.87
809.48	1073.65
809.80	1070.33
810.12	1071.47
810.44	1066.70
810.77	1066.61
811.09	1069.30
811.41	1072.15
811.73	1069.77
812.05	1073.00
812.37	1074.07
812.69	1071.10
813.01	1067.80
813.33	1068.34
813.66	1070.77
813.98	1072.11
814.30	1074.07
814.62	1074.42
814.94	1075.45
815.26	1076.20
815.58	1077.84
815.90	1076.25
816.22	1078.89
816.54	1078.54
816.86	1076.08
817.18	1075.27
817.50	1077.61
817.82	1077.68
818.14	1077.35
818.46	1077.98
818.78	1075.87
819.10	1076.55
819.42	1074.61
819.74	1075.20
820.06	1072.25
820.38	1072.08
820.70	1068.29
821.02	1071.85
821.34	1071.90
821.66	1076.37
821.98	1077.68
822.30	1078.92
822.62	1072.06
822.94	1073.77
823.26	1072.95
823.58	1074.38
823.90	1075.17
824.22	1078.24
824.54	1073.11
824.86	1070.82
825.18	1068.29
825.50	1069.37
825.81	1070.77
826.13	1075.31
826.45	1076.18
826.77	1078.14
827.09	1077.68
827.41	1079.81
827.73	1080.30
828.05	1077.65
828.36	1074.52
828.68	1074.45
829.00	1070.49
829.32	1069.09
829.64	1071.54
829.96	1070.75
830.28	1069.25
830.59	1070.09
830.91	1070.70
831.23	1070.94
831.55	1075.50
831.87	1078.89
832.19	1078.03
832.50	1076.58
832.82	1078.80
833.14	1075.73
833.46	1070.47
833.78	1073.51
834.09	1073.00
834.41	1070.80
834.73	1071.94
835.05	1071.97
835.36	1071.73
835.68	1072.88
836.00	1072.60
836.32	1071.26
836.63	1077.51
836.95	1073.18
837.27	1072.01
837.59	1072.85
837.90	1073.30
838.22	1070.77
838.54	1072.20
838.85	1074.54
839.17	1073.11
839.49	1073.58
839.80	1072.32
840.12	1071.01
840.44	1069.16
840.76	1071.26
841.07	1069.77
841.39	1069.95
841.71	1072.04
842.02	1073.30
842.34	1077.00
842.65	1083.22
842.97	1083.50
843.29	1082.08
843.60	1084.00
843.92	1081.33
844.24	1076.76
844.55	1076.65
844.87	1077.49
845.18	1073.49
845.50	1073.30
845.82	1073.28
846.13	1071.12
846.45	1073.74
846.76	1075.78
847.08	1073.65
847.40	1075.52
847.71	1074.26
848.03	1072.08
848.34	1071.61
848.66	1075.73
848.97	1070.70
849.29	1074.10
849.60	1074.87
849.92	1071.64
850.24	1068.88
850.55	1071.33
850.87	1070.00
851.18	1068.76
851.50	1072.81
851.81	1072.88
852.13	1077.79
852.44	1078.47
852.76	1077.68
853.07	1076.51
853.39	1075.48
853.70	1071.19
854.01	1072.81
854.33	1075.38
854.64	1074.35
854.96	1072.53
855.27	1073.56
855.59	1070.96
855.90	1069.25
856.22	1071.43
856.53	1073.11
856.84	1074.07
857.16	1077.02
857.47	1079.24
857.79	1077.86
858.10	1078.03
858.41	1076.62
858.73	1075.78
859.04	1073.67
859.36	1074.52
859.67	1073.39
859.98	1073.49
860.30	1069.11
860.61	1073.00
860.92	1072.92
861.24	1074.75
861.55	1073.14
861.87	1076.90
862.18	1073.67
862.49	1072.74
862.81	1073.32
863.12	1073.25
863.43	1073.18
863.74	1075.50
864.06	1075.55
864.37	1074.59
864.68	1074.80
865.00	1073.16
865.31	1073.18
865.62	1072.01
865.94	1071.92
866.25	1073.07
866.56	1072.97
866.87	1068.10
867.19	1067.31
867.50	1067.96
867.81	1067.92
868.12	1067.12
868.44	1070.96
868.75	1074.89
869.06	1071.59
869.37	1072.60
869.68	1074.38
870.00	1075.52
870.31	1075.94
870.62	1076.86
870.93	1077.00
871.24	1078.89
871.56	1078.66
871.87	1078.68
872.18	1080.23
872.49	1082.08
872.80	1079.29
873.12	1079.88
873.43	1077.30
873.74	1077.82
874.05	1077.40
874.36	1077.11
874.67	1077.44
874.98	1075.59
875.29	1079.17
875.61	1077.44
875.92	1080.70
876.23	1077.72
876.54	1079.50
876.85	1072.69
877.16	1073.84
877.47	1070.33
877.78	1070.28
878.09	1074.19
878.40	1078.17
878.72	1079.03
879.03	1079.27
879.34	1079.46
879.65	1076.55
879.96	1073.88
880.27	1071.01
880.58	1072.90
880.89	1073.00
881.20	1075.76
881.51	1075.01
881.82	1075.92
882.13	1076.25
882.44	1075.66
882.75	1070.12
883.06	1071.36
883.37	1070.58
883.68	1067.78
883.99	1066.14
884.30	1067.75
884.61	1067.99
884.92	1063.00
885.23	1064.17
885.54	1067.47
885.85	1070.40
886.16	1072.76
886.47	1077.93
886.78	1077.77
887.08	1075.76
887.39	1072.29
887.70	1072.32
888.01	1072.81
888.32	1073.21
888.63	1075.31
888.94	1077.96
889.25	1076.32
889.56	1073.98
889.87	1075.17
890.17	1073.35
890.48	1073.91
890.79	1075.13
891.10	1075.85
891.41	1074.91
891.72	1072.69
892.03	1072.22
892.34	1070.82
892.64	1069.60
892.95	1068.36
893.26	1072.74
893.57	1069.39
893.88	1068.52
894.18	1070.44
894.49	1072.27
894.80	1073.58
895.11	1077.70
895.42	1079.67
895.72	1079.71
896.03	1080.53
896.34	1078.28
896.65	1078.54
896.96	1078.50
897.26	1076.65
897.57	1076.34
897.88	1078.50
898.19	1075.99
898.49	1078.00
898.80	1077.56
899.11	1077.84
899.41	1072.95
899.72	1073.39
900.03	1069.51
900.34	1071.68
900.64	1067.07
900.95	1068.71
901.26	1067.96
901.56	1070.77
901.87	1067.19
902.18	1071.50
902.48	1070.96
902.79	1072.18
903.10	1069.44
903.40	1074.42
903.71	1074.12
904.02	1075.08
904.32	1074.91
904.63	1079.06
904.94	1078.00
905.24	1081.05
905.55	1080.95
905.85	1080.20
906.16	1075.17
906.47	1075.24
906.77	1072.78
907.08	1072.78
907.38	1072.36
907.69	1076.44
908.00	1076.83
908.30	1074.24
908.61	1072.95
908.91	1072.18
909.22	1070.63
909.52	1071.05
909.83	1074.82
910.14	1074.49
910.44	1077.54
910.75	1077.68
911.05	1076.81
911.36	1074.54
911.66	1077.68
911.97	1076.46
912.27	1074.21
912.58	1072.74
912.88	1072.64
913.19	1075.29
913.49	1075.64
913.80	1075.80
914.10	1074.68
914.41	1074.66
914.71	1072.50
915.01	1070.47
915.32	1070.96
915.62	1073.35
915.93	1075.66
916.23	1075.43
916.54	1077.30
916.84	1075.69
917.15	1075.24
917.45	1073.32
917.75	1072.18
918.06	1069.65
918.36	1071.99
918.67	1070.07
918.97	1068.41
919.27	1067.45
919.58	1069.53
919.88	1069.25
920.18	1070.70
920.49	1072.41
920.79	1071.57
921.10	1073.30
921.40	1072.01
921.70	1071.87
922.01	1070.21
922.31	1070.68
922.61	1068.31
922.92	1068.50
923.22	1071.68
923.52	1072.15
923.82	1074.68
924.13	1072.71
924.43	1073.25
924.73	1070.40
925.04	1071.90
925.34	1072.04
925.64	1074.17
925.94	1073.88
926.25	1074.26
926.55	1070.91
926.85	1069.41
927.15	1068.83
927.46	1071.12
927.76	1073.72
928.06	1077.35
928.36	1077.09
928.67	1079.85
928.97	1078.45
929.27	1077.33
929.57	1075.20
929.87	1077.00
930.18	1074.47
930.48	1075.27
930.78	1074.89
931.08	1077.14
931.38	1073.04
931.69	1072.90
931.99	1069.88
932.29	1068.55
932.59	1067.07
932.89	1069.60
933.19	1070.44
933.49	1071.10
933.80	1071.36
934.10	1073.77
934.40	1073.77
934.70	1071.64
935.00	1073.95
935.30	1073.28
935.60	1071.10
935.90	1073.14
936.20	1079.03
936.50	1079.22
936.81	1081.23
937.11	1080.58
937.41	1078.38
937.71	1073.28
938.01	1071.92
938.31	1072.90
938.61	1073.72
938.91	1073.09
939.21	1073.81
939.51	1075.20
939.81	1072.36
940.11	1072.64
940.41	1071.97
940.71	1071.08
941.01	1067.92
941.31	1065.58
941.61	1061.92
941.91	1062.88
942.21	1064.59
942.51	1066.18
942.81	1069.77
943.11	1074.26
943.41	1077.09
943.71	1078.78
944.01	1078.00
944.31	1076.13
944.61	1074.87
944.90	1074.24
945.20	1071.59
945.50	1072.60
945.80	1075.43
946.10	1076.83
946.40	1075.97
946.70	1077.51
947.00	1078.59
947.30	1077.51
947.60	1076.69
947.89	1076.11
948.19	1075.78
948.49	1073.51
948.79	1072.57
949.09	1073.25
949.39	1072.74
949.69	1068.88
949.98	1071.24
950.28	1072.06
950.58	1071.10
950.88	1073.18
951.18	1077.56
951.48	1078.21
951.77	1079.31
952.07	1082.61
952.37	1080.27
952.67	1079.13
952.97	1078.31
953.26	1073.58
953.56	1069.53
953.86	1071.61
954.16	1071.66
954.45	1073.44
954.75	1076.32
955.05	1077.23
955.35	1072.29
955.64	1071.92
955.94	1066.16
956.24	1067.92
956.54	1069.86
956.83	1073.79
957.13	1072.32
957.43	1076.25
957.72	1074.61
958.02	1072.39
958.32	1072.55
958.61	1074.63
958.91	1075.80
959.21	1075.17
959.50	1073.51
959.80	1071.52
960.10	1069.93
960.39	1069.88
960.69	1070.80
960.99	1072.34
961.28	1073.91
961.58	1076.44
961.87	1073.77
962.17	1076.65
962.47	1078.07
962.76	1078.52
963.06	1077.23
963.36	1080.20
963.65	1078.87
963.95	1076.15
964.24	1075.13
964.54	1074.31
964.83	1069.37
965.13	1070.42
965.42	1072.32
965.72	1074.05
966.02	1073.91
966.31	1074.17
966.61	1071.92
966.90	1070.33
967.20	1067.59
967.49	1067.85
967.79	1069.27
968.08	1067.68
968.38	1068.57
968.67	1069.53
968.97	1072.60
969.26	1074.89
969.56	1076.83
969.85	1078.38
970.15	1076.97
970.44	1073.84
970.74	1075.69
971.03	1075.08
971.32	1075.80
971.62	1076.95
971.91	1080.48
972.21	1080.48
972.50	1079.95
972.80	1078.38
973.09	1074.94
973.38	1074.56
973.68	1072.69
973.97	1074.84
974.27	1073.77
974.56	1078.07
974.85	1075.20
975.15	1075.36
975.44	1075.78
975.73	1077.70
976.03	1075.62
976.32	1075.78
976.61	1077.35
976.91	1075.55
977.20	1074.35
977.49	1079.17
977.79	1079.38
978.08	1073.88
978.37	1073.79
978.67	1074.73
978.96	1070.44
979.25	1072.85
979.55	1077.86
979.84	1078.82
980.13	1079.10
980.42	1079.36
980.72	1077.37
981.01	1076.27
981.30	1077.28
981.59	1077.42
981.89	1076.25
982.18	1075.76
982.47	1074.35
982.76	1073.28
983.06	1071.94
983.35	1074.00
983.64	1074.05
983.93	1073.70
984.22	1072.83
984.52	1072.18
984.81	1071.92
985.10	1073.67
985.39	1073.32
985.68	1073.30
985.97	1073.21
986.27	1074.61
986.56	1071.90
986.85	1076.06
987.14	1072.88
987.43	1071.54
987.72	1068.59
988.01	1071.80
988.31	1073.32
988.60	1075.34
988.89	1078.33
989.18	1078.50
989.47	1076.65
989.76	1069.16
990.05	1073.14
990.34	1074.38
990.63	1076.88
990.92	1075.87
991.21	1075.34
991.51	1073.65
991.80	1072.34
992.09	1071.19
992.38	1070.51
992.67	1073.35
992.96	1070.33
993.25	1071.08
993.54	1070.14
993.83	1070.28
994.12	1069.84
994.41	1071.75
994.70	1072.18
994.99	1070.63
995.28	1072.22
995.57	1073.39
995.86	1072.01
996.15	1071.61
996.44	1075.24
996.73	1076.58
997.02	1075.76
997.31	1077.93
997.59	1079.53
997.88	1079.41
998.17	1077.28
998.46	1076.51
998.75	1076.27
999.04	1073.16
999.33	1071.33
999.62	1072.76
999.91	1074.54
1000.20	1076.37
1000.49	1076.39
1000.77	1079.71
1001.06	1079.03
1001.35	1079.60
1001.64	1076.74
1001.93	1073.60
1002.22	1070.77
1002.51	1070.07
1002.79	1067.33
1003.08	1069.44
1003.37	1072.04
1003.66	1073.35
1003.95	1073.23
1004.23	1074.75
1004.52	1072.78
1004.81	1070.89
1005.10	1068.48
1005.39	1066.14
1005.67	1066.79
1005.96	1068.15
1006.25	1070.33
1006.54	1071.97
1006.83	1073.98
1007.11	1073.65
1007.40	1075.03
1007.69	1073.72
1007.97	1072.41
1008.26	1073.74
1008.55	1075.66
1008.84	1073.53
1009.12	1074.38
1009.41	1075.83
1009.70	1077.42
1009.98	1075.01
1010.27	1073.04
1010.56	1075.05
1010.85	1071.57
1011.13	1069.11
1011.42	1068.88
1011.71	1070.19
1011.99	1067.64
1012.28	1071.36
1012.56	1071.66
1012.85	1075.27
1013.14	1074.24
1013.42	1076.69
1013.71	1073.63
1014.00	1074.17
1014.28	1072.34
1014.57	1073.11
1014.85	1071.03
1015.14	1073.91
1015.43	1072.53
1015.71	1072.60
1016.00	1073.70
1016.28	1074.07
1016.57	1076.76
1016.85	1079.06
1017.14	1076.93
1017.43	1076.74
1017.71	1074.73
1018.00	1070.02
1018.28	1069.32
1018.57	1069.20
1018.85	1069.98
1019.14	1073.25
1019.42	1073.44
1019.71	1071.85
1019.99	1072.64
1020.28	1072.46
1020.56	1070.68
1020.85	1070.68
1021.13	1072.95
1021.42	1071.64
1021.70	1071.82
1021.99	1075.29
1022.27	1079.53
1022.55	1086.59
1022.84	1086.01
>>>>>End Processed Spectral Data<<<<<
