SpectraSuite Data File
++++++++++++++++++++++++++++++++++++
Date: Mon Aug 26 10:22:01 PDT 2019
User: corrico
Dark Spectrum Present: No
Reference Spectrum Present: No
Number of Sampled Component Spectra: 1
Spectrometers: USB2+H06089
Integration Time (usec): 2000 (USB2+H06089)
Spectra Averaged: 20 (USB2+H06089)
Boxcar Smoothing: 2 (USB2+H06089)
Correct for Electrical Dark: No (USB2+H06089)
Strobe/Lamp Enabled: No (USB2+H06089)
Correct for Detector Non-linearity: No (USB2+H06089)
Correct for Stray Light: No (USB2+H06089)
Number of Pixels in Processed Spectrum: 2048
>>>>>Begin Processed Spectral Data<<<<<
339.70	1024.69
340.07	1024.69
340.45	992.97
340.82	972.09
341.19	951.19
341.57	927.93
341.94	917.75
342.31	909.77
342.69	907.50
343.06	901.97
343.43	899.61
343.81	902.42
344.18	903.12
344.55	903.31
344.93	910.05
345.30	916.88
345.67	921.12
346.04	927.91
346.42	935.04
346.79	939.12
347.16	945.83
347.54	957.44
347.91	970.32
348.28	981.36
348.65	995.01
349.03	1004.91
349.40	1008.91
349.77	1017.55
350.14	1025.27
350.52	1032.64
350.89	1038.80
351.26	1047.04
351.63	1051.37
352.01	1056.28
352.38	1061.60
352.75	1068.57
353.12	1071.33
353.50	1072.71
353.87	1076.25
354.24	1076.37
354.61	1077.14
354.98	1080.02
355.36	1082.10
355.73	1081.30
356.10	1082.22
356.47	1080.58
356.84	1081.40
357.22	1078.00
357.59	1078.54
357.96	1079.27
358.33	1080.95
358.70	1080.67
359.08	1085.05
359.45	1085.42
359.82	1083.79
360.19	1085.54
360.56	1084.46
360.94	1083.13
361.31	1081.75
361.68	1082.52
362.05	1078.89
362.42	1076.27
362.79	1073.98
363.16	1075.62
363.54	1073.30
363.91	1073.49
364.28	1072.06
364.65	1074.24
365.02	1070.40
365.39	1071.64
365.76	1071.90
366.14	1075.24
366.51	1072.74
366.88	1071.97
367.25	1069.84
367.62	1066.37
367.99	1064.26
368.36	1064.99
368.73	1066.28
369.10	1065.76
369.48	1066.49
369.85	1065.90
370.22	1065.41
370.59	1066.00
370.96	1063.77
371.33	1063.47
371.70	1064.92
372.07	1068.17
372.44	1069.74
372.81	1072.18
373.18	1076.04
373.55	1076.67
373.93	1070.98
374.30	1069.98
374.67	1072.32
375.04	1071.38
375.41	1068.78
375.78	1073.02
376.15	1071.90
376.52	1070.89
376.89	1070.51
377.26	1075.55
377.63	1072.08
378.00	1072.78
378.37	1074.07
378.74	1075.80
379.11	1072.95
379.48	1076.62
379.85	1079.03
380.22	1078.85
380.59	1077.47
380.96	1077.61
381.33	1077.93
381.70	1075.43
382.07	1073.74
382.44	1073.14
382.81	1075.01
383.18	1076.46
383.55	1076.97
383.92	1078.36
384.29	1079.08
384.66	1079.13
385.03	1075.99
385.40	1077.37
385.77	1081.63
386.14	1080.60
386.51	1080.16
386.88	1081.37
387.25	1082.01
387.62	1077.86
387.99	1081.09
388.36	1082.33
388.73	1085.99
389.10	1084.07
389.46	1084.07
389.83	1083.36
390.20	1083.48
390.57	1083.06
390.94	1084.67
391.31	1084.89
391.68	1083.88
392.05	1082.66
392.42	1080.23
392.79	1080.37
393.16	1085.03
393.53	1084.63
393.89	1084.04
394.26	1086.27
394.63	1085.82
395.00	1081.87
395.37	1082.12
395.74	1079.48
396.11	1077.96
396.48	1076.60
396.84	1075.41
397.21	1077.93
397.58	1081.23
397.95	1078.07
398.32	1078.05
398.69	1081.96
399.06	1081.40
399.42	1082.19
399.79	1084.84
400.16	1088.30
400.53	1087.46
400.90	1085.77
401.27	1085.12
401.64	1084.09
402.00	1080.91
402.37	1078.89
402.74	1081.35
403.11	1082.59
403.48	1083.04
403.84	1086.62
404.21	1086.62
404.58	1083.67
404.95	1081.47
405.32	1082.66
405.68	1083.32
406.05	1086.15
406.42	1087.67
406.79	1089.54
407.16	1089.05
407.52	1086.27
407.89	1087.88
408.26	1092.02
408.63	1090.99
408.99	1092.82
409.36	1092.73
409.73	1092.37
410.10	1088.72
410.47	1091.34
410.83	1091.09
411.20	1090.67
411.57	1087.37
411.94	1091.06
412.30	1094.22
412.67	1094.32
413.04	1095.32
413.40	1098.83
413.77	1094.46
414.14	1090.06
414.51	1091.65
414.87	1097.62
415.24	1093.85
415.61	1097.20
415.97	1098.95
416.34	1102.60
416.71	1098.27
417.08	1103.38
417.44	1106.98
417.81	1107.96
418.18	1101.97
418.54	1106.28
418.91	1105.13
419.28	1103.75
419.64	1101.15
420.01	1105.44
420.38	1105.76
420.74	1108.38
421.11	1108.24
421.48	1112.69
421.84	1115.38
422.21	1115.59
422.58	1115.17
422.94	1114.87
423.31	1117.54
423.68	1119.17
424.04	1124.28
424.41	1130.24
424.77	1135.84
425.14	1141.32
425.51	1141.92
425.87	1142.16
426.24	1141.78
426.61	1142.74
426.97	1145.25
427.34	1150.98
427.70	1156.08
428.07	1166.01
428.44	1178.16
428.80	1185.15
429.17	1193.79
429.53	1203.11
429.90	1206.05
430.27	1212.23
430.63	1219.75
431.00	1226.70
431.36	1238.38
431.73	1254.83
432.09	1265.06
432.46	1274.52
432.83	1290.81
433.19	1305.64
433.56	1318.61
433.92	1340.57
434.29	1366.36
434.65	1388.99
435.02	1408.89
435.38	1437.63
435.75	1456.70
436.11	1483.24
436.48	1511.94
436.84	1542.95
437.21	1570.90
437.57	1608.04
437.94	1642.10
438.30	1679.08
438.67	1719.94
439.03	1767.78
439.40	1817.68
439.76	1868.78
440.13	1924.41
440.49	1987.11
440.86	2044.83
441.22	2110.51
441.59	2180.09
441.95	2256.23
442.32	2331.64
442.68	2417.31
443.05	2503.76
443.41	2597.60
443.78	2694.03
444.14	2795.35
444.51	2895.69
444.87	3020.13
445.24	3142.33
445.60	3270.10
445.96	3396.63
446.33	3550.64
446.69	3692.73
447.06	3851.30
447.42	4011.19
447.79	4190.42
448.15	4389.74
448.51	4587.29
448.88	4810.27
449.24	5025.53
449.61	5285.42
449.97	5540.91
450.33	5816.86
450.70	6076.38
451.06	6408.29
451.43	6700.25
451.79	7038.58
452.15	7402.06
452.52	7790.96
452.88	8166.46
453.24	8603.97
453.61	9064.33
453.97	9520.69
454.34	9991.49
454.70	10530.05
455.06	11057.49
455.43	11579.82
455.79	12100.99
456.15	12709.25
456.52	13306.04
456.88	14037.46
457.24	14757.34
457.61	15580.06
457.97	16341.18
458.33	17114.86
458.70	17853.23
459.06	18567.38
459.42	19330.20
459.79	20023.42
460.15	20799.64
460.51	21503.91
460.88	22249.11
461.24	22915.09
461.60	23731.25
461.96	24429.81
462.33	25094.66
462.69	25775.90
463.05	26520.24
463.42	27233.65
463.78	27887.04
464.14	28497.61
464.50	29152.40
464.87	29648.48
465.23	29904.88
465.59	30235.25
465.95	30527.28
466.32	30700.36
466.68	30844.28
467.04	31008.56
467.40	31083.44
467.77	31168.89
468.13	31173.43
468.49	31048.91
468.85	30931.12
469.22	30868.39
469.58	30704.81
469.94	30561.19
470.30	30410.07
470.66	30102.26
471.03	29591.60
471.39	29168.29
471.75	28545.55
472.11	27941.92
472.47	27534.34
472.84	27122.71
473.20	26536.74
473.56	26130.91
473.92	25651.43
474.28	25160.64
474.65	24687.17
475.01	24288.61
475.37	23802.92
475.73	23407.91
476.09	22938.82
476.45	22503.29
476.81	22102.76
477.18	21697.98
477.54	21328.46
477.90	20994.65
478.26	20605.51
478.62	20250.34
478.98	19999.83
479.34	19777.06
479.71	19520.65
480.07	19266.75
480.43	19005.50
480.79	18622.24
481.15	18214.52
481.51	17865.10
481.87	17580.42
482.23	17253.66
482.59	16991.26
482.96	16695.60
483.32	16421.69
483.68	16094.20
484.04	15791.48
484.40	15491.77
484.76	15236.63
485.12	14950.59
485.48	14731.17
485.84	14487.33
486.20	14219.20
486.56	13915.51
486.92	13626.69
487.28	13305.55
487.64	12978.93
488.00	12679.76
488.37	12362.69
488.73	12019.14
489.09	11685.48
489.45	11378.96
489.81	11074.29
490.17	10805.39
490.53	10530.33
490.89	10219.69
491.25	9927.50
491.61	9634.30
491.97	9353.72
492.33	9097.97
492.69	8879.59
493.05	8657.92
493.41	8450.62
493.77	8225.27
494.13	8006.41
494.49	7791.60
494.85	7594.57
495.21	7384.48
495.57	7202.62
495.93	7010.35
496.29	6820.65
496.64	6634.30
497.00	6457.58
497.36	6289.67
497.72	6137.26
498.08	5994.63
498.44	5844.65
498.80	5691.04
499.16	5523.69
499.52	5363.60
499.88	5215.46
500.24	5078.78
500.60	4960.41
500.96	4857.97
501.32	4750.19
501.68	4641.84
502.03	4531.07
502.39	4424.17
502.75	4320.93
503.11	4225.70
503.47	4137.32
503.83	4050.04
504.19	3964.61
504.55	3875.48
504.91	3785.70
505.26	3697.18
505.62	3614.84
505.98	3529.86
506.34	3440.07
506.70	3357.43
507.06	3282.81
507.42	3202.39
507.78	3128.59
508.13	3068.54
508.49	3006.89
508.85	2943.83
509.21	2887.85
509.57	2831.60
509.93	2775.48
510.28	2720.83
510.64	2674.32
511.00	2622.24
511.36	2573.35
511.72	2529.14
512.07	2481.62
512.43	2433.48
512.79	2398.77
513.15	2358.21
513.51	2315.12
513.86	2281.72
514.22	2245.28
514.58	2204.36
514.94	2166.49
515.30	2125.89
515.65	2087.13
516.01	2052.93
516.37	2019.81
516.73	1991.96
517.08	1966.59
517.44	1938.74
517.80	1909.50
518.16	1881.51
518.51	1857.75
518.87	1832.31
519.23	1811.55
519.59	1794.72
519.94	1777.08
520.30	1753.23
520.66	1734.57
521.01	1716.06
521.37	1695.25
521.73	1674.19
522.09	1655.30
522.44	1637.79
522.80	1618.60
523.16	1601.51
523.51	1581.13
523.87	1565.47
524.23	1547.66
524.58	1534.03
524.94	1520.93
525.30	1514.19
525.65	1499.67
526.01	1485.89
526.37	1473.09
526.72	1458.15
527.08	1442.82
527.44	1432.92
527.79	1425.62
528.15	1416.91
528.51	1411.48
528.86	1401.47
529.22	1392.10
529.58	1381.50
529.93	1373.31
530.29	1360.55
530.65	1352.01
531.00	1346.30
531.36	1341.36
531.71	1332.89
532.07	1324.93
532.43	1319.31
532.78	1310.61
533.14	1303.28
533.49	1294.76
533.85	1289.87
534.21	1282.57
534.56	1277.56
534.92	1267.54
535.27	1261.57
535.63	1257.36
535.98	1249.71
536.34	1243.53
536.69	1241.30
537.05	1234.52
537.41	1228.99
537.76	1226.37
538.12	1222.53
538.47	1215.04
538.83	1210.99
539.18	1207.11
539.54	1202.78
539.89	1199.41
540.25	1198.99
540.60	1198.71
540.96	1195.31
541.31	1193.60
541.67	1190.23
542.02	1187.14
542.38	1185.72
542.73	1180.78
543.09	1179.91
543.44	1175.70
543.80	1174.86
544.15	1169.87
544.51	1171.84
544.86	1173.29
545.22	1174.71
545.57	1174.01
545.93	1172.87
546.28	1169.47
546.64	1161.40
546.99	1155.45
547.35	1147.75
547.70	1143.16
548.05	1140.94
548.41	1141.25
548.76	1140.87
549.12	1144.48
549.47	1146.42
549.83	1143.56
550.18	1142.46
550.53	1143.09
550.89	1140.68
551.24	1137.38
551.60	1135.72
551.95	1132.54
552.30	1127.16
552.66	1123.90
553.01	1124.07
553.37	1119.71
553.72	1116.95
554.07	1115.69
554.43	1116.39
554.78	1115.80
555.13	1121.23
555.49	1124.04
555.84	1122.94
556.19	1121.80
556.55	1119.60
556.90	1115.90
557.26	1114.31
557.61	1114.24
557.96	1109.91
558.32	1110.21
558.67	1108.34
559.02	1106.77
559.37	1105.48
559.73	1108.62
560.08	1107.24
560.43	1108.27
560.79	1108.50
561.14	1108.64
561.49	1109.51
561.85	1110.70
562.20	1111.94
562.55	1110.87
562.90	1111.89
563.26	1107.89
563.61	1106.23
563.96	1102.72
564.32	1100.64
564.67	1100.87
565.02	1100.33
565.37	1096.12
565.73	1095.65
566.08	1096.12
566.43	1094.41
566.78	1092.80
567.14	1098.95
567.49	1098.58
567.84	1097.57
568.19	1097.78
568.54	1097.92
568.90	1093.52
569.25	1092.80
569.60	1090.24
569.95	1089.80
570.31	1091.77
570.66	1092.42
571.01	1095.67
571.36	1098.16
571.71	1097.95
572.06	1098.48
572.42	1097.57
572.77	1095.58
573.12	1096.59
573.47	1098.25
573.82	1095.14
574.18	1094.90
574.53	1095.63
574.88	1095.30
575.23	1095.51
575.58	1095.91
575.93	1093.40
576.28	1093.83
576.64	1090.48
576.99	1085.89
577.34	1085.07
577.69	1084.86
578.04	1085.84
578.39	1085.40
578.74	1084.42
579.09	1084.86
579.44	1087.09
579.80	1085.07
580.15	1090.03
580.50	1093.15
580.85	1094.76
581.20	1094.36
581.55	1093.45
581.90	1090.46
582.25	1091.32
582.60	1088.77
582.95	1088.68
583.30	1086.71
583.65	1088.09
584.00	1086.64
584.35	1087.16
584.71	1087.74
585.06	1091.11
585.41	1089.00
585.76	1090.60
586.11	1091.74
586.46	1088.19
586.81	1086.27
587.16	1087.51
587.51	1086.01
587.86	1086.17
588.21	1087.39
588.56	1083.62
588.91	1082.47
589.26	1078.96
589.61	1077.86
589.96	1080.32
590.31	1079.83
590.66	1080.30
591.01	1082.61
591.36	1083.53
591.71	1084.56
592.06	1089.73
592.41	1087.04
592.76	1087.44
593.10	1089.03
593.45	1087.53
593.80	1084.74
594.15	1086.97
594.50	1087.83
594.85	1084.72
595.20	1083.11
595.55	1083.88
595.90	1084.16
596.25	1085.96
596.60	1086.31
596.95	1084.77
597.30	1083.83
597.64	1095.32
597.99	1093.10
598.34	1091.56
598.69	1093.17
599.04	1090.88
599.39	1077.98
599.74	1076.58
600.09	1077.21
600.44	1077.79
600.78	1081.05
601.13	1080.86
601.48	1082.47
601.83	1085.89
602.18	1088.77
602.53	1089.29
602.88	1089.82
603.22	1088.84
603.57	1087.79
603.92	1082.80
604.27	1080.95
604.62	1081.73
604.97	1083.13
605.31	1078.87
605.66	1080.81
606.01	1082.78
606.36	1081.77
606.71	1077.86
607.05	1080.84
607.40	1080.48
607.75	1079.57
608.10	1082.38
608.44	1087.41
608.79	1085.38
609.14	1086.80
609.49	1089.96
609.84	1089.78
610.18	1087.74
610.53	1089.89
610.88	1091.60
611.23	1089.03
611.57	1086.43
611.92	1085.59
612.27	1084.70
612.62	1080.30
612.96	1079.29
613.31	1078.68
613.66	1080.32
614.00	1080.27
614.35	1082.97
614.70	1080.95
615.05	1081.09
615.39	1080.16
615.74	1078.43
616.09	1078.21
616.43	1082.33
616.78	1083.41
617.13	1082.54
617.47	1086.38
617.82	1082.87
618.17	1078.17
618.51	1081.14
618.86	1084.16
619.21	1078.24
619.55	1087.04
619.90	1090.71
620.25	1085.52
620.59	1084.04
620.94	1088.28
621.29	1082.29
621.63	1079.69
621.98	1078.28
622.32	1078.59
622.67	1079.10
623.02	1077.63
623.36	1080.25
623.71	1084.28
624.05	1083.27
624.40	1082.10
624.75	1080.91
625.09	1080.77
625.44	1079.46
625.78	1079.17
626.13	1080.72
626.48	1081.47
626.82	1083.04
627.17	1086.03
627.51	1087.23
627.86	1086.78
628.20	1087.32
628.55	1087.60
628.89	1080.58
629.24	1079.92
629.58	1080.58
629.93	1081.30
630.28	1080.81
630.62	1085.38
630.97	1082.66
631.31	1081.12
631.66	1080.65
632.00	1079.88
632.35	1081.68
632.69	1084.44
633.04	1081.84
633.38	1081.56
633.73	1079.57
634.07	1077.28
634.42	1075.01
634.76	1078.71
635.11	1084.21
635.45	1086.29
635.79	1086.08
636.14	1086.55
636.48	1086.66
636.83	1082.61
637.17	1081.70
637.52	1080.84
637.86	1081.42
638.21	1080.27
638.55	1078.52
638.89	1076.32
639.24	1082.47
639.58	1082.12
639.93	1080.51
640.27	1079.81
640.61	1080.63
640.96	1077.58
641.30	1075.90
641.65	1076.23
641.99	1078.66
642.33	1080.06
642.68	1077.84
643.02	1082.29
643.37	1084.18
643.71	1082.47
644.05	1081.07
644.40	1083.74
644.74	1082.97
645.08	1083.88
645.43	1085.05
645.77	1084.44
646.11	1085.59
646.46	1081.80
646.80	1081.14
647.14	1082.54
647.49	1087.88
647.83	1082.05
648.17	1082.59
648.52	1079.29
648.86	1077.70
649.20	1075.17
649.55	1079.74
649.89	1081.07
650.23	1080.91
650.57	1077.33
650.92	1076.51
651.26	1074.52
651.60	1073.98
651.95	1077.25
652.29	1081.56
652.63	1080.13
652.97	1080.72
653.32	1081.96
653.66	1080.41
654.00	1078.43
654.34	1080.67
654.69	1079.55
655.03	1077.11
655.37	1076.18
655.71	1074.52
656.05	1076.53
656.40	1075.57
656.74	1080.58
657.08	1082.29
657.42	1084.81
657.76	1081.80
658.11	1083.86
658.45	1083.83
658.79	1084.18
659.13	1081.84
659.47	1078.21
659.82	1077.61
660.16	1072.83
660.50	1073.93
660.84	1076.79
661.18	1082.47
661.52	1081.02
661.87	1082.33
662.21	1082.50
662.55	1080.56
662.89	1078.24
663.23	1078.78
663.57	1079.01
663.91	1078.92
664.25	1079.69
664.60	1079.64
664.94	1080.91
665.28	1078.14
665.62	1076.60
665.96	1075.01
666.30	1074.94
666.64	1074.59
666.98	1078.64
667.32	1080.06
667.66	1082.80
668.01	1081.75
668.35	1079.81
668.69	1079.03
669.03	1078.96
669.37	1076.51
669.71	1079.08
670.05	1079.17
670.39	1079.53
670.73	1077.02
671.07	1079.85
671.41	1078.82
671.75	1080.93
672.09	1078.14
672.43	1080.39
672.77	1080.72
673.11	1081.23
673.45	1081.89
673.79	1087.76
674.13	1084.63
674.47	1082.87
674.81	1081.26
675.15	1079.27
675.49	1072.76
675.83	1076.76
676.17	1075.22
676.51	1075.57
676.85	1076.65
677.19	1079.67
677.53	1076.58
677.87	1079.31
678.21	1077.47
678.55	1080.11
678.89	1081.47
679.23	1080.67
679.57	1081.61
679.90	1084.32
680.24	1081.30
680.58	1076.74
680.92	1079.71
681.26	1079.78
681.60	1080.51
681.94	1081.23
682.28	1084.86
682.62	1081.84
682.96	1080.67
683.29	1076.97
683.63	1073.09
683.97	1070.75
684.31	1072.29
684.65	1071.17
684.99	1073.79
685.33	1077.70
685.67	1078.61
686.00	1077.56
686.34	1080.86
686.68	1082.29
687.02	1080.02
687.36	1078.64
687.70	1081.26
688.03	1078.73
688.37	1075.57
688.71	1076.41
689.05	1077.54
689.39	1075.27
689.72	1074.66
690.06	1075.64
690.40	1078.31
690.74	1077.63
691.08	1077.84
691.41	1078.28
691.75	1079.29
692.09	1078.94
692.43	1083.55
692.76	1084.49
693.10	1088.02
693.44	1087.41
693.78	1084.67
694.11	1079.01
694.45	1080.27
694.79	1076.67
695.13	1077.86
695.46	1081.05
695.80	1081.63
696.14	1078.82
696.48	1078.40
696.81	1076.44
697.15	1076.39
697.49	1078.17
697.82	1079.88
698.16	1081.61
698.50	1078.61
698.83	1075.50
699.17	1075.05
699.51	1075.34
699.84	1072.83
700.18	1076.97
700.52	1078.31
700.85	1079.55
701.19	1078.12
701.53	1080.98
701.86	1082.69
702.20	1084.25
702.54	1087.32
702.87	1089.59
703.21	1087.34
703.55	1089.14
703.88	1086.24
704.22	1081.35
704.55	1079.97
704.89	1079.17
705.23	1076.86
705.56	1078.31
705.90	1080.41
706.23	1079.41
706.57	1079.38
706.91	1077.14
707.24	1077.07
707.58	1077.51
707.91	1078.66
708.25	1079.10
708.58	1079.53
708.92	1080.11
709.26	1079.74
709.59	1078.57
709.93	1081.63
710.26	1083.74
710.60	1078.68
710.93	1079.29
711.27	1079.48
711.60	1076.39
711.94	1073.91
712.27	1079.13
712.61	1077.11
712.94	1075.24
713.28	1078.47
713.61	1077.70
713.95	1075.55
714.28	1076.23
714.62	1078.71
714.95	1072.67
715.29	1076.11
715.62	1078.75
715.96	1076.83
716.29	1075.05
716.63	1081.14
716.96	1077.82
717.29	1077.00
717.63	1079.81
717.96	1083.36
718.30	1079.99
718.63	1082.31
718.97	1085.24
719.30	1084.11
719.63	1082.94
719.97	1084.09
720.30	1086.45
720.64	1082.69
720.97	1082.57
721.30	1079.43
721.64	1078.54
721.97	1075.52
722.31	1074.35
722.64	1075.41
722.97	1078.54
723.31	1079.88
723.64	1080.95
723.97	1080.95
724.31	1079.08
724.64	1079.34
724.98	1082.61
725.31	1081.19
725.64	1084.65
725.98	1086.59
726.31	1086.29
726.64	1081.26
726.97	1083.01
727.31	1083.43
727.64	1081.26
727.97	1080.09
728.31	1080.98
728.64	1080.13
728.97	1076.60
729.31	1077.58
729.64	1076.34
729.97	1078.14
730.30	1077.93
730.64	1076.01
730.97	1075.64
731.30	1078.33
731.63	1078.71
731.97	1079.43
732.30	1082.24
732.63	1081.35
732.96	1080.20
733.30	1077.54
733.63	1072.57
733.96	1074.89
734.29	1076.86
734.63	1076.30
734.96	1079.41
735.29	1080.81
735.62	1081.42
735.95	1083.95
736.29	1083.86
736.62	1083.57
736.95	1085.84
737.28	1086.57
737.61	1080.39
737.94	1082.59
738.28	1082.66
738.61	1082.12
738.94	1078.52
739.27	1081.21
739.60	1078.40
739.93	1078.12
740.27	1079.83
740.60	1079.53
740.93	1080.77
741.26	1084.44
741.59	1082.61
741.92	1079.60
742.25	1079.76
742.58	1078.47
742.91	1075.57
743.25	1075.29
743.58	1078.80
743.91	1080.18
744.24	1081.44
744.57	1083.15
744.90	1082.33
745.23	1082.05
745.56	1081.94
745.89	1080.06
746.22	1080.27
746.55	1080.60
746.88	1077.21
747.21	1075.78
747.54	1077.82
747.87	1076.76
748.20	1079.24
748.53	1080.74
748.87	1080.37
749.20	1078.96
749.53	1077.89
749.86	1077.23
750.19	1076.11
750.52	1076.95
750.85	1077.79
751.18	1077.04
751.51	1078.59
751.84	1078.45
752.16	1076.51
752.49	1074.47
752.82	1079.76
753.15	1078.14
753.48	1079.34
753.81	1079.36
754.14	1079.83
754.47	1077.47
754.80	1075.10
755.13	1076.83
755.46	1079.31
755.79	1078.28
756.12	1076.81
756.45	1075.24
756.78	1074.77
757.11	1071.90
757.43	1072.34
757.76	1074.52
758.09	1077.75
758.42	1076.83
758.75	1078.68
759.08	1077.04
759.41	1075.90
759.74	1074.21
760.07	1075.01
760.39	1077.07
760.72	1081.58
761.05	1078.07
761.38	1077.28
761.71	1077.70
762.04	1076.08
762.36	1075.57
762.69	1078.40
763.02	1078.94
763.35	1079.27
763.68	1081.75
764.01	1080.39
764.33	1084.39
764.66	1086.97
764.99	1084.18
765.32	1081.98
765.65	1082.03
765.97	1077.79
766.30	1078.00
766.63	1077.33
766.96	1076.37
767.28	1074.82
767.61	1073.09
767.94	1072.92
768.27	1074.77
768.59	1076.08
768.92	1079.20
769.25	1079.92
769.58	1078.14
769.90	1078.38
770.23	1078.50
770.56	1078.80
770.89	1082.17
771.21	1084.53
771.54	1086.22
771.87	1088.82
772.19	1092.63
772.52	1090.95
772.85	1089.54
773.17	1088.42
773.50	1086.22
773.83	1081.37
774.15	1079.64
774.48	1076.58
774.81	1076.44
775.13	1073.32
775.46	1072.76
775.79	1073.88
776.11	1075.94
776.44	1074.75
776.77	1075.62
777.09	1076.86
777.42	1074.52
777.74	1078.99
778.07	1078.05
778.40	1080.16
778.72	1077.63
779.05	1078.66
779.37	1074.10
779.70	1075.17
780.03	1076.13
780.35	1078.80
780.68	1082.03
781.00	1082.90
781.33	1082.50
781.65	1081.16
781.98	1079.78
782.31	1079.01
782.63	1077.42
782.96	1077.68
783.28	1076.51
783.61	1074.91
783.93	1072.57
784.26	1076.65
784.58	1078.05
784.91	1077.16
785.23	1080.11
785.56	1081.21
785.88	1078.21
786.21	1079.46
786.53	1080.53
786.86	1079.43
787.18	1078.40
787.51	1078.47
787.83	1076.83
788.16	1076.08
788.48	1076.90
788.81	1079.08
789.13	1080.32
789.46	1076.44
789.78	1079.74
790.10	1076.95
790.43	1075.62
790.75	1076.01
791.08	1080.11
791.40	1075.03
791.73	1076.90
792.05	1077.84
792.37	1076.65
792.70	1074.24
793.02	1076.51
793.35	1077.04
793.67	1074.14
793.99	1075.71
794.32	1079.67
794.64	1077.79
794.96	1077.37
795.29	1081.26
795.61	1078.71
795.93	1073.00
796.26	1076.79
796.58	1076.46
796.91	1074.94
797.23	1074.19
797.55	1077.58
797.87	1073.49
798.20	1071.50
798.52	1070.42
798.84	1072.57
799.17	1070.44
799.49	1070.63
799.81	1071.61
800.14	1068.97
800.46	1070.37
800.78	1072.60
801.10	1075.22
801.43	1074.24
801.75	1076.69
802.07	1073.70
802.40	1074.12
802.72	1075.55
803.04	1077.40
803.36	1080.18
803.69	1083.34
804.01	1083.97
804.33	1081.28
804.65	1082.43
804.97	1078.80
805.30	1077.18
805.62	1074.28
805.94	1076.41
806.26	1073.04
806.58	1075.83
806.91	1074.42
807.23	1072.69
807.55	1071.52
807.87	1075.10
808.19	1069.48
808.52	1070.70
808.84	1074.61
809.16	1074.66
809.48	1071.94
809.80	1076.65
810.12	1075.90
810.44	1075.22
810.77	1076.58
811.09	1075.99
811.41	1073.91
811.73	1074.89
812.05	1076.41
812.37	1074.40
812.69	1077.09
813.01	1079.06
813.33	1081.16
813.66	1076.20
813.98	1079.10
814.30	1075.59
814.62	1074.66
814.94	1070.16
815.26	1073.60
815.58	1072.60
815.90	1075.48
816.22	1076.41
816.54	1076.51
816.86	1077.23
817.18	1078.50
817.50	1077.28
817.82	1078.57
818.14	1080.20
818.46	1081.61
818.78	1080.70
819.10	1082.85
819.42	1081.07
819.74	1084.51
820.06	1078.82
820.38	1075.57
820.70	1074.98
821.02	1073.28
821.34	1072.01
821.66	1074.59
821.98	1075.76
822.30	1074.59
822.62	1076.81
822.94	1072.83
823.26	1073.18
823.58	1073.23
823.90	1073.91
824.22	1070.05
824.54	1072.55
824.86	1074.82
825.18	1075.17
825.50	1074.59
825.81	1078.68
826.13	1077.70
826.45	1074.75
826.77	1075.29
827.09	1076.60
827.41	1074.80
827.73	1072.76
828.05	1074.28
828.36	1074.42
828.68	1074.56
829.00	1075.01
829.32	1077.84
829.64	1079.41
829.96	1081.12
830.28	1083.48
830.59	1086.50
830.91	1083.20
831.23	1081.68
831.55	1079.53
831.87	1075.34
832.19	1072.97
832.50	1077.16
832.82	1077.16
833.14	1079.85
833.46	1077.63
833.78	1078.07
834.09	1078.96
834.41	1079.29
834.73	1075.92
835.05	1078.73
835.36	1075.31
835.68	1071.78
836.00	1073.74
836.32	1074.03
836.63	1076.04
836.95	1078.94
837.27	1081.07
837.59	1080.02
837.90	1083.86
838.22	1085.68
838.54	1088.12
838.85	1085.47
839.17	1084.58
839.49	1081.00
839.80	1078.50
840.12	1075.05
840.44	1078.66
840.76	1073.79
841.07	1074.33
841.39	1073.00
841.71	1076.25
842.02	1073.23
842.34	1077.77
842.65	1075.08
842.97	1074.54
843.29	1067.85
843.60	1066.77
843.92	1065.60
844.24	1067.57
844.55	1070.00
844.87	1075.48
845.18	1076.08
845.50	1079.41
845.82	1080.25
846.13	1079.22
846.45	1078.66
846.76	1080.44
847.08	1078.57
847.40	1078.64
847.71	1077.61
848.03	1076.55
848.34	1074.59
848.66	1074.19
848.97	1072.41
849.29	1072.53
849.60	1073.18
849.92	1075.50
850.24	1076.51
850.55	1078.75
850.87	1076.06
851.18	1073.58
851.50	1075.41
851.81	1074.63
852.13	1073.63
852.44	1074.26
852.76	1075.80
853.07	1075.13
853.39	1077.40
853.70	1078.07
854.01	1080.27
854.33	1082.57
854.64	1080.77
854.96	1079.69
855.27	1078.47
855.59	1079.57
855.90	1080.11
856.22	1079.43
856.53	1077.84
856.84	1076.39
857.16	1077.44
857.47	1075.10
857.79	1074.19
858.10	1073.77
858.41	1076.32
858.73	1071.90
859.04	1071.31
859.36	1076.06
859.67	1078.75
859.98	1078.26
860.30	1081.42
860.61	1083.83
860.92	1081.84
861.24	1081.56
861.55	1082.36
861.87	1080.37
862.18	1077.82
862.49	1078.68
862.81	1077.58
863.12	1078.59
863.43	1077.93
863.74	1077.84
864.06	1073.32
864.37	1074.96
864.68	1072.85
865.00	1078.14
865.31	1079.62
865.62	1084.70
865.94	1082.31
866.25	1081.54
866.56	1079.88
866.87	1082.12
867.19	1077.23
867.50	1074.42
867.81	1074.35
868.12	1073.30
868.44	1068.38
868.75	1071.08
869.06	1072.46
869.37	1071.19
869.68	1071.71
870.00	1075.36
870.31	1076.34
870.62	1079.60
870.93	1079.97
871.24	1079.83
871.56	1079.08
871.87	1077.56
872.18	1073.72
872.49	1075.59
872.80	1071.82
873.12	1070.70
873.43	1071.90
873.74	1075.38
874.05	1076.13
874.36	1079.88
874.67	1083.48
874.98	1084.67
875.29	1082.45
875.61	1083.57
875.92	1083.13
876.23	1083.08
876.54	1080.84
876.85	1083.74
877.16	1079.15
877.47	1080.23
877.78	1073.58
878.09	1072.11
878.40	1067.28
878.72	1068.34
879.03	1066.16
879.34	1068.52
879.65	1067.85
879.96	1071.45
880.27	1073.95
880.58	1075.36
880.89	1077.82
881.20	1081.66
881.51	1079.76
881.82	1077.77
882.13	1079.22
882.44	1078.07
882.75	1077.51
883.06	1078.10
883.37	1078.99
883.68	1077.49
883.99	1078.85
884.30	1078.10
884.61	1078.50
884.92	1077.68
885.23	1078.43
885.54	1075.97
885.85	1075.17
886.16	1073.23
886.47	1073.58
886.78	1071.08
887.08	1074.45
887.39	1073.60
887.70	1075.66
888.01	1076.39
888.32	1076.90
888.63	1074.40
888.94	1074.52
889.25	1073.60
889.56	1072.34
889.87	1073.98
890.17	1074.77
890.48	1077.96
890.79	1078.36
891.10	1080.34
891.41	1081.77
891.72	1081.49
892.03	1079.69
892.34	1079.92
892.64	1079.41
892.95	1077.86
893.26	1079.53
893.57	1079.24
893.88	1080.13
894.18	1078.85
894.49	1081.12
894.80	1080.18
895.11	1081.19
895.42	1084.23
895.72	1086.06
896.03	1080.20
896.34	1079.17
896.65	1080.34
896.96	1076.15
897.26	1076.32
897.57	1077.51
897.88	1077.54
898.19	1074.63
898.49	1076.83
898.80	1074.31
899.11	1073.23
899.41	1073.65
899.72	1072.53
900.03	1068.08
900.34	1067.66
900.64	1070.05
900.95	1069.70
901.26	1069.51
901.56	1068.15
901.87	1068.27
902.18	1067.87
902.48	1069.98
902.79	1071.52
903.10	1076.62
903.40	1079.20
903.71	1079.20
904.02	1076.86
904.32	1078.12
904.63	1078.68
904.94	1077.68
905.24	1078.52
905.55	1080.37
905.85	1078.36
906.16	1075.64
906.47	1072.74
906.77	1073.09
907.08	1072.55
907.38	1073.37
907.69	1074.28
908.00	1074.45
908.30	1072.97
908.61	1073.39
908.91	1076.37
909.22	1077.21
909.52	1078.68
909.83	1079.43
910.14	1080.63
910.44	1075.43
910.75	1074.77
911.05	1075.41
911.36	1074.61
911.66	1071.01
911.97	1077.14
912.27	1078.24
912.58	1076.79
912.88	1077.44
913.19	1079.27
913.49	1077.75
913.80	1078.00
914.10	1081.07
914.41	1081.14
914.71	1081.54
915.01	1080.16
915.32	1081.16
915.62	1081.40
915.93	1081.49
916.23	1083.34
916.54	1083.50
916.84	1081.00
917.15	1080.60
917.45	1079.92
917.75	1078.05
918.06	1079.99
918.36	1080.30
918.67	1076.74
918.97	1077.91
919.27	1075.97
919.58	1077.70
919.88	1078.07
920.18	1082.15
920.49	1084.25
920.79	1086.01
921.10	1080.86
921.40	1079.64
921.70	1076.01
922.01	1072.46
922.31	1072.27
922.61	1072.01
922.92	1072.69
923.22	1072.25
923.52	1073.56
923.82	1072.36
924.13	1072.78
924.43	1069.98
924.73	1071.45
925.04	1072.06
925.34	1070.37
925.64	1073.14
925.94	1077.79
926.25	1078.05
926.55	1077.54
926.85	1078.73
927.15	1075.52
927.46	1074.07
927.76	1076.39
928.06	1074.33
928.36	1074.63
928.67	1075.76
928.97	1074.03
929.27	1073.91
929.57	1076.51
929.87	1077.37
930.18	1077.37
930.48	1077.07
930.78	1074.05
931.08	1074.98
931.38	1073.58
931.69	1071.78
931.99	1075.55
932.29	1074.54
932.59	1076.95
932.89	1077.25
933.19	1078.57
933.49	1075.36
933.80	1080.93
934.10	1077.16
934.40	1078.19
934.70	1075.69
935.00	1075.43
935.30	1073.44
935.60	1070.91
935.90	1069.67
936.20	1073.18
936.50	1075.92
936.81	1073.49
937.11	1077.42
937.41	1081.33
937.71	1079.57
938.01	1080.02
938.31	1080.41
938.61	1077.14
938.91	1070.42
939.21	1071.61
939.51	1068.76
939.81	1069.51
940.11	1070.44
940.41	1076.65
940.71	1076.74
941.01	1075.87
941.31	1079.20
941.61	1081.44
941.91	1076.95
942.21	1078.33
942.51	1080.98
942.81	1077.44
943.11	1073.58
943.41	1075.05
943.71	1072.43
944.01	1071.36
944.31	1072.41
944.61	1076.01
944.90	1076.41
945.20	1075.80
945.50	1078.03
945.80	1080.25
946.10	1076.79
946.40	1076.44
946.70	1076.08
947.00	1074.80
947.30	1072.48
947.60	1075.94
947.89	1074.89
948.19	1075.78
948.49	1076.27
948.79	1077.56
949.09	1075.31
949.39	1078.78
949.69	1077.51
949.98	1075.83
950.28	1075.62
950.58	1076.37
950.88	1074.96
951.18	1078.40
951.48	1081.21
951.77	1078.21
952.07	1079.74
952.37	1081.09
952.67	1078.03
952.97	1075.15
953.26	1074.82
953.56	1071.64
953.86	1070.37
954.16	1074.42
954.45	1072.95
954.75	1076.20
955.05	1078.38
955.35	1078.14
955.64	1077.54
955.94	1078.71
956.24	1078.57
956.54	1077.25
956.83	1081.21
957.13	1081.73
957.43	1079.69
957.72	1076.32
958.02	1076.13
958.32	1076.23
958.61	1073.98
958.91	1078.40
959.21	1081.09
959.50	1079.64
959.80	1074.73
960.10	1077.07
960.39	1076.37
960.69	1074.05
960.99	1075.43
961.28	1077.30
961.58	1076.95
961.87	1077.54
962.17	1080.32
962.47	1081.40
962.76	1082.78
963.06	1080.86
963.36	1076.46
963.65	1073.32
963.95	1074.07
964.24	1073.02
964.54	1075.29
964.83	1078.94
965.13	1083.06
965.42	1082.94
965.72	1080.74
966.02	1079.43
966.31	1079.69
966.61	1080.11
966.90	1078.75
967.20	1079.62
967.49	1080.32
967.79	1079.27
968.08	1077.30
968.38	1077.91
968.67	1078.78
968.97	1077.91
969.26	1078.85
969.56	1078.05
969.85	1075.17
970.15	1073.30
970.44	1073.21
970.74	1071.54
971.03	1072.55
971.32	1072.60
971.62	1074.38
971.91	1075.10
972.21	1075.34
972.50	1075.48
972.80	1079.67
973.09	1078.52
973.38	1076.65
973.68	1076.72
973.97	1075.31
974.27	1073.70
974.56	1076.62
974.85	1078.12
975.15	1078.26
975.44	1078.64
975.73	1080.56
976.03	1077.72
976.32	1076.04
976.61	1078.64
976.91	1081.96
977.20	1078.89
977.49	1076.88
977.79	1078.50
978.08	1078.10
978.37	1075.38
978.67	1075.10
978.96	1077.16
979.25	1075.57
979.55	1072.69
979.84	1073.37
980.13	1075.34
980.42	1074.19
980.72	1074.05
981.01	1073.14
981.30	1070.61
981.59	1070.54
981.89	1071.82
982.18	1075.85
982.47	1077.79
982.76	1080.95
983.06	1081.00
983.35	1081.12
983.64	1080.37
983.93	1079.88
984.22	1077.47
984.52	1075.48
984.81	1076.18
985.10	1072.88
985.39	1075.87
985.68	1078.03
985.97	1078.50
986.27	1075.69
986.56	1076.93
986.85	1072.29
987.14	1070.54
987.43	1067.82
987.72	1069.27
988.01	1069.27
988.31	1072.39
988.60	1073.84
988.89	1075.73
989.18	1077.30
989.47	1078.28
989.76	1077.35
990.05	1075.76
990.34	1076.86
990.63	1076.55
990.92	1073.09
991.21	1070.98
991.51	1070.61
991.80	1070.35
992.09	1069.27
992.38	1069.58
992.67	1071.19
992.96	1073.70
993.25	1073.04
993.54	1071.36
993.83	1072.71
994.12	1071.90
994.41	1070.80
994.70	1072.11
994.99	1073.63
995.28	1075.71
995.57	1077.61
995.86	1079.20
996.15	1083.04
996.44	1086.29
996.73	1086.66
997.02	1087.39
997.31	1085.63
997.59	1083.36
997.88	1078.45
998.17	1075.13
998.46	1074.05
998.75	1073.70
999.04	1073.02
999.33	1075.13
999.62	1075.50
999.91	1078.92
1000.20	1081.23
1000.49	1083.36
1000.77	1083.48
1001.06	1082.26
1001.35	1081.16
1001.64	1078.24
1001.93	1076.20
1002.22	1076.25
1002.51	1079.69
1002.79	1076.67
1003.08	1077.40
1003.37	1077.02
1003.66	1077.40
1003.95	1076.01
1004.23	1079.34
1004.52	1080.06
1004.81	1081.07
1005.10	1081.75
1005.39	1082.97
1005.67	1081.73
1005.96	1082.17
1006.25	1080.88
1006.54	1081.35
1006.83	1081.37
1007.11	1078.21
1007.40	1077.72
1007.69	1079.13
1007.97	1081.37
1008.26	1083.29
1008.55	1086.99
1008.84	1085.68
1009.12	1085.49
1009.41	1083.25
1009.70	1083.48
1009.98	1080.41
1010.27	1082.87
1010.56	1084.46
1010.85	1082.24
1011.13	1080.34
1011.42	1081.35
1011.71	1080.09
1011.99	1077.25
1012.28	1076.74
1012.56	1073.91
1012.85	1075.29
1013.14	1076.72
1013.42	1077.07
1013.71	1078.64
1014.00	1080.30
1014.28	1078.50
1014.57	1076.04
1014.85	1076.34
1015.14	1074.87
1015.43	1075.41
1015.71	1079.24
1016.00	1082.15
1016.28	1082.19
1016.57	1084.21
1016.85	1085.28
1017.14	1079.85
1017.43	1078.07
1017.71	1079.27
1018.00	1079.17
1018.28	1078.24
1018.57	1080.18
1018.85	1081.77
1019.14	1081.47
1019.42	1082.52
1019.71	1081.05
1019.99	1084.30
1020.28	1083.06
1020.56	1080.88
1020.85	1079.95
1021.13	1083.20
1021.42	1080.86
1021.70	1080.13
1021.99	1082.61
1022.27	1080.58
1022.55	1084.25
1022.84	1071.85
>>>>>End Processed Spectral Data<<<<<
