SpectraSuite Data File
++++++++++++++++++++++++++++++++++++
Date: Mon Aug 26 10:22:27 PDT 2019
User: corrico
Dark Spectrum Present: No
Reference Spectrum Present: No
Number of Sampled Component Spectra: 1
Spectrometers: USB2+H06089
Integration Time (usec): 2000 (USB2+H06089)
Spectra Averaged: 20 (USB2+H06089)
Boxcar Smoothing: 2 (USB2+H06089)
Correct for Electrical Dark: No (USB2+H06089)
Strobe/Lamp Enabled: No (USB2+H06089)
Correct for Detector Non-linearity: No (USB2+H06089)
Correct for Stray Light: No (USB2+H06089)
Number of Pixels in Processed Spectrum: 2048
>>>>>Begin Processed Spectral Data<<<<<
339.70	1028.43
340.07	1028.43
340.45	997.44
340.82	974.51
341.19	949.56
341.57	925.03
341.94	915.57
342.31	905.41
342.69	902.67
343.06	901.86
343.43	900.10
343.81	896.14
344.18	898.58
344.55	901.60
344.93	904.83
345.30	912.13
345.67	918.03
346.04	924.93
346.42	933.69
346.79	942.84
347.16	949.88
347.54	962.26
347.91	974.13
348.28	984.59
348.65	995.90
349.03	1005.33
349.40	1014.55
349.77	1019.56
350.14	1023.75
350.52	1033.30
350.89	1040.56
351.26	1048.09
351.63	1053.85
352.01	1061.15
352.38	1062.21
352.75	1066.56
353.12	1068.97
353.50	1073.53
353.87	1077.82
354.24	1084.21
354.61	1083.32
354.98	1083.48
355.36	1085.89
355.73	1084.79
356.10	1082.90
356.47	1087.81
356.84	1090.50
357.22	1089.43
357.59	1089.10
357.96	1088.42
358.33	1087.48
358.70	1081.26
359.08	1080.60
359.45	1083.20
359.82	1081.56
360.19	1082.92
360.56	1087.34
360.94	1087.06
361.31	1087.37
361.68	1086.45
362.05	1082.61
362.42	1081.33
362.79	1081.33
363.16	1075.80
363.54	1074.07
363.91	1076.20
364.28	1077.00
364.65	1074.28
365.02	1076.69
365.39	1077.51
365.76	1075.29
366.14	1076.13
366.51	1079.85
366.88	1078.78
367.25	1080.09
367.62	1077.79
367.99	1075.99
368.36	1073.84
368.73	1073.21
369.10	1072.74
369.48	1075.59
369.85	1076.69
370.22	1081.19
370.59	1081.47
370.96	1084.18
371.33	1084.74
371.70	1084.16
372.07	1082.31
372.44	1084.00
372.81	1080.18
373.18	1079.17
373.55	1080.74
373.93	1081.49
374.30	1082.26
374.67	1080.02
375.04	1079.38
375.41	1080.93
375.78	1079.69
376.15	1078.54
376.52	1083.83
376.89	1085.68
377.26	1081.94
377.63	1081.16
378.00	1081.16
378.37	1081.98
378.74	1083.15
379.11	1084.44
379.48	1086.31
379.85	1087.51
380.22	1086.20
380.59	1084.30
380.96	1082.99
381.33	1079.76
381.70	1078.28
382.07	1077.04
382.44	1075.45
382.81	1077.54
383.18	1079.69
383.55	1078.14
383.92	1079.13
384.29	1085.05
384.66	1087.13
385.03	1083.13
385.40	1084.02
385.77	1080.63
386.14	1077.51
386.51	1077.07
386.88	1081.56
387.25	1085.33
387.62	1087.60
387.99	1088.26
388.36	1089.29
388.73	1090.01
389.10	1086.57
389.46	1088.40
389.83	1087.34
390.20	1085.28
390.57	1084.32
390.94	1086.27
391.31	1084.02
391.68	1082.54
392.05	1082.12
392.42	1083.13
392.79	1081.26
393.16	1085.24
393.53	1087.23
393.89	1089.82
394.26	1089.43
394.63	1090.55
395.00	1086.06
395.37	1087.86
395.74	1089.73
396.11	1087.27
396.48	1088.30
396.84	1090.97
397.21	1088.33
397.58	1085.40
397.95	1087.95
398.32	1089.71
398.69	1092.40
399.06	1093.29
399.42	1094.60
399.79	1098.62
400.16	1097.83
400.53	1095.02
400.90	1096.99
401.27	1096.07
401.64	1093.22
402.00	1093.12
402.37	1094.69
402.74	1093.94
403.11	1092.00
403.48	1089.43
403.84	1090.29
404.21	1091.04
404.58	1094.04
404.95	1095.23
405.32	1096.78
405.68	1097.08
406.05	1094.69
406.42	1089.00
406.79	1091.13
407.16	1090.85
407.52	1089.96
407.89	1093.38
408.26	1096.17
408.63	1095.67
408.99	1096.52
409.36	1096.10
409.73	1096.00
410.10	1094.36
410.47	1093.94
410.83	1096.78
411.20	1101.99
411.57	1101.32
411.94	1105.01
412.30	1106.00
412.67	1104.59
413.04	1100.22
413.40	1099.00
413.77	1097.27
414.14	1097.38
414.51	1098.37
414.87	1099.84
415.24	1102.09
415.61	1102.63
415.97	1100.05
416.34	1099.00
416.71	1099.70
417.08	1100.15
417.44	1103.38
417.81	1106.51
418.18	1107.14
418.54	1108.31
418.91	1109.65
419.28	1110.21
419.64	1113.46
420.01	1114.96
420.38	1116.51
420.74	1118.85
421.11	1120.63
421.48	1118.78
421.84	1120.13
422.21	1123.95
422.58	1125.54
422.94	1126.03
423.31	1129.26
423.68	1133.19
424.04	1129.03
424.41	1131.44
424.77	1137.03
425.14	1140.73
425.51	1146.00
425.87	1154.84
426.24	1156.58
426.61	1159.13
426.97	1167.23
427.34	1170.78
427.70	1176.35
428.07	1186.86
428.44	1193.09
428.80	1200.04
429.17	1209.24
429.53	1218.01
429.90	1224.71
430.27	1235.12
430.63	1242.26
431.00	1251.58
431.36	1261.69
431.73	1273.65
432.09	1285.77
432.46	1298.06
432.83	1314.00
433.19	1332.07
433.56	1351.43
433.92	1368.14
434.29	1391.80
434.65	1416.45
435.02	1440.46
435.38	1467.91
435.75	1497.64
436.11	1527.83
436.48	1560.22
436.84	1595.99
437.21	1629.50
437.57	1664.92
437.94	1705.92
438.30	1747.05
438.67	1791.35
439.03	1842.70
439.40	1901.45
439.76	1956.13
440.13	2012.21
440.49	2073.55
440.86	2132.72
441.22	2200.06
441.59	2273.18
441.95	2356.62
442.32	2444.95
442.68	2544.02
443.05	2642.21
443.41	2739.64
443.78	2837.60
444.14	2942.69
444.51	3052.67
444.87	3189.45
445.24	3331.26
445.60	3490.51
445.96	3644.78
446.33	3811.89
446.69	3974.65
447.06	4156.49
447.42	4330.48
447.79	4519.62
448.15	4746.65
448.51	4969.92
448.88	5225.13
449.24	5471.07
449.61	5754.75
449.97	6024.02
450.33	6308.89
450.70	6575.62
451.06	6899.17
451.43	7194.27
451.79	7558.50
452.15	7954.97
452.52	8384.64
452.88	8851.60
453.24	9374.36
453.61	9932.46
453.97	10488.24
454.34	11038.69
454.70	11665.00
455.06	12308.69
455.43	12953.39
455.79	13560.74
456.15	14271.14
456.52	14921.87
456.88	15694.95
457.24	16391.57
457.61	17219.98
457.97	17980.49
458.33	18769.74
458.70	19528.61
459.06	20292.54
459.42	21130.99
459.79	21917.13
460.15	22807.54
460.51	23658.14
460.88	24596.67
461.24	25401.53
461.60	26353.00
461.96	27203.13
462.33	28045.66
462.69	28807.31
463.05	29639.02
463.42	30354.29
463.78	31000.16
464.14	31514.68
464.50	32086.71
464.87	32562.56
465.23	32903.49
465.59	33269.15
465.95	33609.74
466.32	33884.33
466.68	34091.31
467.04	34229.61
467.40	34366.79
467.77	34511.25
468.13	34489.01
468.49	34399.42
468.85	34331.45
469.22	34160.07
469.58	33819.48
469.94	33582.47
470.30	33270.88
470.66	32866.95
471.03	32294.10
471.39	31905.95
471.75	31276.74
472.11	30704.08
472.47	30338.98
472.84	30022.59
473.20	29537.23
473.56	29268.75
473.92	28838.35
474.28	28316.76
474.65	27824.87
475.01	27351.95
475.37	26777.95
475.73	26286.51
476.09	25774.00
476.45	25247.94
476.81	24727.27
477.18	24196.08
477.54	23772.19
477.90	23395.88
478.26	22972.59
478.62	22625.47
478.98	22336.65
479.34	22019.76
479.71	21608.01
480.07	21274.70
480.43	20920.39
480.79	20529.54
481.15	20184.99
481.51	19877.30
481.87	19613.53
482.23	19328.33
482.59	19064.34
482.96	18763.61
483.32	18463.69
483.68	18092.29
484.04	17758.02
484.40	17398.04
484.76	17048.88
485.12	16684.25
485.48	16370.97
485.84	16016.52
486.20	15679.83
486.56	15308.27
486.92	15009.06
487.28	14659.08
487.64	14309.26
488.00	13987.56
488.37	13673.20
488.73	13318.40
489.09	12968.18
489.45	12669.02
489.81	12348.85
490.17	12053.64
490.53	11779.75
490.89	11488.24
491.25	11179.31
491.61	10873.99
491.97	10562.65
492.33	10243.99
492.69	9949.41
493.05	9652.30
493.41	9366.64
493.77	9084.39
494.13	8820.29
494.49	8574.67
494.85	8342.30
495.21	8116.35
495.57	7909.16
495.93	7710.75
496.29	7511.34
496.64	7323.72
497.00	7134.73
497.36	6941.23
497.72	6749.82
498.08	6568.29
498.44	6385.94
498.80	6218.38
499.16	6059.76
499.52	5907.09
499.88	5780.84
500.24	5668.75
500.60	5549.22
500.96	5432.48
501.32	5320.60
501.68	5193.13
502.03	5060.40
502.39	4931.74
502.75	4796.27
503.11	4665.04
503.47	4545.09
503.83	4426.35
504.19	4311.45
504.55	4211.93
504.91	4116.82
505.26	4028.58
505.62	3942.54
505.98	3858.40
506.34	3763.51
506.70	3668.88
507.06	3580.06
507.42	3491.92
507.78	3415.78
508.13	3349.07
508.49	3280.82
508.85	3211.54
509.21	3144.02
509.57	3075.16
509.93	3004.62
510.28	2934.84
510.64	2868.14
511.00	2806.63
511.36	2741.38
511.72	2685.41
512.07	2643.61
512.43	2593.36
512.79	2542.62
513.15	2501.31
513.51	2455.43
513.86	2404.76
514.22	2361.27
514.58	2316.15
514.94	2279.73
515.30	2242.33
515.65	2206.70
516.01	2176.93
516.37	2151.98
516.73	2119.43
517.08	2091.48
517.44	2064.00
517.80	2036.52
518.16	2006.71
518.51	1983.46
518.87	1956.36
519.23	1928.98
519.59	1902.46
519.94	1877.16
520.30	1850.22
520.66	1827.96
521.01	1806.17
521.37	1785.13
521.73	1765.75
522.09	1746.32
522.44	1728.44
522.80	1708.24
523.16	1683.66
523.51	1661.97
523.87	1638.59
524.23	1615.37
524.58	1596.18
524.94	1582.76
525.30	1566.68
525.65	1552.57
526.01	1538.36
526.37	1529.12
526.72	1516.99
527.08	1501.20
527.44	1490.64
527.79	1478.82
528.15	1462.02
528.51	1448.30
528.86	1442.68
529.22	1428.12
529.58	1417.15
529.93	1407.22
530.29	1397.46
530.65	1384.10
531.00	1374.41
531.36	1365.59
531.71	1357.56
532.07	1347.12
532.43	1342.67
532.78	1340.59
533.14	1336.12
533.49	1326.55
533.85	1322.94
534.21	1313.72
534.56	1302.48
534.92	1293.73
535.27	1292.44
535.63	1285.59
535.98	1280.69
536.34	1275.47
536.69	1271.40
537.05	1266.56
537.41	1259.82
537.76	1250.45
538.12	1249.21
538.47	1241.44
538.83	1235.03
539.18	1230.56
539.54	1231.31
539.89	1223.37
540.25	1221.10
540.60	1216.73
540.96	1214.13
541.31	1212.07
541.67	1209.61
542.02	1206.78
542.38	1204.84
542.73	1203.27
543.09	1196.74
543.44	1194.87
543.80	1189.51
544.15	1185.36
544.51	1183.28
544.86	1182.56
545.22	1179.26
545.57	1182.13
545.93	1181.71
546.28	1180.61
546.64	1175.30
546.99	1172.02
547.35	1163.95
547.70	1159.01
548.05	1153.51
548.41	1154.77
548.76	1153.02
549.12	1154.31
549.47	1153.28
549.83	1150.42
550.18	1144.90
550.53	1141.88
550.89	1139.61
551.24	1133.54
551.60	1131.67
551.95	1134.32
552.30	1135.93
552.66	1137.52
553.01	1141.25
553.37	1142.11
553.72	1139.96
554.07	1134.67
554.43	1132.91
554.78	1128.58
555.13	1128.82
555.49	1128.56
555.84	1128.89
556.19	1123.43
556.55	1127.13
556.90	1124.91
557.26	1124.60
557.61	1124.98
557.96	1126.55
558.32	1123.29
558.67	1122.05
559.02	1117.93
559.37	1118.89
559.73	1117.72
560.08	1117.75
560.43	1118.12
560.79	1120.04
561.14	1117.51
561.49	1117.58
561.85	1116.62
562.20	1112.90
562.55	1109.72
562.90	1108.36
563.26	1107.56
563.61	1108.36
563.96	1110.14
564.32	1114.02
564.67	1118.64
565.02	1119.53
565.37	1115.62
565.73	1113.95
566.08	1109.18
566.43	1106.72
566.78	1104.66
567.14	1105.97
567.49	1104.99
567.84	1102.06
568.19	1097.78
568.54	1098.16
568.90	1096.89
569.25	1095.96
569.60	1097.80
569.95	1101.55
570.31	1098.93
570.66	1099.33
571.01	1100.22
571.36	1101.88
571.71	1101.29
572.06	1102.09
572.42	1104.03
572.77	1105.53
573.12	1103.40
573.47	1100.54
573.82	1099.07
574.18	1096.05
574.53	1094.67
574.88	1094.13
575.23	1093.17
575.58	1094.60
575.93	1091.65
576.28	1090.95
576.64	1090.85
576.99	1089.80
577.34	1090.36
577.69	1093.66
578.04	1089.89
578.39	1090.64
578.74	1090.39
579.09	1089.61
579.44	1088.68
579.80	1090.76
580.15	1093.03
580.50	1095.11
580.85	1095.82
581.20	1096.35
581.55	1096.38
581.90	1091.98
582.25	1093.57
582.60	1094.48
582.95	1093.36
583.30	1092.30
583.65	1094.81
584.00	1093.66
584.35	1091.20
584.71	1090.83
585.06	1092.45
585.41	1093.17
585.76	1090.69
586.11	1091.27
586.46	1092.56
586.81	1091.09
587.16	1090.67
587.51	1091.25
587.86	1091.63
588.21	1089.31
588.56	1092.63
588.91	1092.63
589.26	1089.05
589.61	1090.34
589.96	1091.20
590.31	1091.70
590.66	1088.19
591.01	1091.34
591.36	1087.86
591.71	1090.27
592.06	1087.81
592.41	1088.04
592.76	1093.01
593.10	1096.28
593.45	1094.57
593.80	1094.06
594.15	1095.28
594.50	1092.91
594.85	1093.33
595.20	1095.65
595.55	1097.24
595.90	1096.19
596.25	1094.29
596.60	1089.10
596.95	1082.87
597.30	1080.11
597.64	1093.01
597.99	1095.82
598.34	1094.41
598.69	1095.35
599.04	1094.22
599.39	1083.11
599.74	1081.98
600.09	1086.13
600.44	1086.22
600.78	1086.50
601.13	1085.89
601.48	1081.77
601.83	1081.33
602.18	1083.76
602.53	1086.01
602.88	1084.04
603.22	1086.10
603.57	1084.21
603.92	1085.33
604.27	1085.21
604.62	1090.67
604.97	1088.96
605.31	1089.89
605.66	1090.48
606.01	1089.94
606.36	1088.30
606.71	1089.22
607.05	1090.67
607.40	1092.84
607.75	1092.52
608.10	1092.42
608.44	1092.66
608.79	1091.37
609.14	1086.64
609.49	1087.53
609.84	1087.83
610.18	1087.86
610.53	1087.72
610.88	1089.29
611.23	1088.89
611.57	1084.65
611.92	1085.47
612.27	1084.23
612.62	1083.48
612.96	1083.76
613.31	1086.66
613.66	1087.55
614.00	1088.65
614.35	1087.11
614.70	1086.78
615.05	1083.81
615.39	1081.98
615.74	1081.42
616.09	1085.24
616.43	1086.03
616.78	1084.63
617.13	1086.13
617.47	1085.84
617.82	1082.29
618.17	1078.38
618.51	1080.72
618.86	1082.87
619.21	1084.51
619.55	1087.04
619.90	1088.40
620.25	1088.35
620.59	1087.11
620.94	1084.18
621.29	1084.46
621.63	1086.52
621.98	1088.75
622.32	1086.85
622.67	1090.06
623.02	1088.16
623.36	1087.41
623.71	1085.99
624.05	1084.14
624.40	1084.00
624.75	1084.07
625.09	1083.34
625.44	1083.41
625.78	1085.03
626.13	1083.36
626.48	1083.69
626.82	1084.37
627.17	1086.85
627.51	1085.54
627.86	1083.22
628.20	1082.99
628.55	1085.24
628.89	1083.90
629.24	1087.02
629.58	1089.87
629.93	1090.48
630.28	1088.09
630.62	1085.21
630.97	1085.49
631.31	1085.14
631.66	1088.47
632.00	1088.26
632.35	1089.47
632.69	1086.92
633.04	1087.32
633.38	1081.77
633.73	1080.11
634.07	1080.23
634.42	1079.83
634.76	1080.25
635.11	1078.92
635.45	1080.25
635.79	1080.25
636.14	1078.43
636.48	1076.20
636.83	1078.66
637.17	1077.96
637.52	1079.08
637.86	1082.59
638.21	1085.45
638.55	1084.42
638.89	1086.34
639.24	1087.11
639.58	1086.29
639.93	1083.97
640.27	1084.02
640.61	1086.38
640.96	1083.62
641.30	1085.70
641.65	1089.00
641.99	1088.77
642.33	1084.16
642.68	1084.89
643.02	1083.20
643.37	1082.59
643.71	1081.07
644.05	1082.66
644.40	1084.98
644.74	1083.90
645.08	1083.95
645.43	1086.22
645.77	1087.34
646.11	1083.93
646.46	1083.43
646.80	1082.38
647.14	1082.15
647.49	1083.13
647.83	1084.65
648.17	1086.45
648.52	1087.62
648.86	1089.57
649.20	1088.61
649.55	1090.50
649.89	1089.10
650.23	1088.14
650.57	1087.93
650.92	1085.05
651.26	1080.20
651.60	1081.87
651.95	1083.86
652.29	1082.36
652.63	1083.76
652.97	1087.95
653.32	1088.68
653.66	1084.02
654.00	1084.30
654.34	1084.14
654.69	1083.76
655.03	1083.48
655.37	1084.32
655.71	1084.18
656.05	1081.54
656.40	1080.32
656.74	1076.81
657.08	1079.22
657.42	1079.71
657.76	1085.66
658.11	1086.50
658.45	1086.94
658.79	1084.86
659.13	1084.70
659.47	1083.27
659.82	1081.19
660.16	1084.00
660.50	1084.49
660.84	1083.64
661.18	1080.77
661.52	1082.76
661.87	1080.13
662.21	1080.13
662.55	1077.30
662.89	1075.03
663.23	1072.01
663.57	1073.81
663.91	1074.98
664.25	1076.86
664.60	1079.48
664.94	1082.69
665.28	1080.98
665.62	1080.30
665.96	1079.81
666.30	1082.08
666.64	1084.81
666.98	1081.82
667.32	1081.23
667.66	1082.85
668.01	1083.60
668.35	1080.39
668.69	1086.62
669.03	1087.16
669.37	1089.22
669.71	1084.25
670.05	1084.02
670.39	1084.30
670.73	1083.71
671.07	1079.22
671.41	1082.47
671.75	1081.42
672.09	1078.28
672.43	1077.49
672.77	1079.08
673.11	1081.89
673.45	1082.66
673.79	1082.45
674.13	1083.64
674.47	1085.96
674.81	1082.43
675.15	1084.04
675.49	1083.76
675.83	1082.45
676.17	1080.91
676.51	1080.88
676.85	1080.27
677.19	1083.22
677.53	1084.28
677.87	1083.62
678.21	1080.48
678.55	1082.45
678.89	1083.81
679.23	1081.89
679.57	1082.43
679.90	1086.97
680.24	1085.80
680.58	1083.11
680.92	1086.38
681.26	1087.20
681.60	1084.96
681.94	1081.37
682.28	1081.61
682.62	1079.36
682.96	1078.92
683.29	1079.15
683.63	1081.94
683.97	1081.56
684.31	1083.88
684.65	1084.84
684.99	1085.94
685.33	1085.68
685.67	1087.32
686.00	1083.53
686.34	1081.33
686.68	1079.69
687.02	1077.11
687.36	1073.88
687.70	1076.74
688.03	1079.67
688.37	1081.37
688.71	1081.37
689.05	1083.01
689.39	1081.94
689.72	1077.91
690.06	1076.27
690.40	1079.55
690.74	1080.34
691.08	1082.17
691.41	1084.21
691.75	1084.42
692.09	1083.29
692.43	1084.35
692.76	1083.50
693.10	1082.24
693.44	1083.74
693.78	1083.67
694.11	1079.92
694.45	1079.99
694.79	1083.13
695.13	1080.30
695.46	1077.98
695.80	1078.47
696.14	1077.77
696.48	1076.74
696.81	1078.19
697.15	1083.13
697.49	1083.79
697.82	1084.04
698.16	1083.15
698.50	1085.75
698.83	1082.52
699.17	1082.78
699.51	1081.47
699.84	1078.82
700.18	1077.23
700.52	1077.84
700.85	1078.66
701.19	1079.34
701.53	1080.93
701.86	1081.61
702.20	1081.89
702.54	1084.44
702.87	1085.87
703.21	1088.51
703.55	1087.06
703.88	1084.98
704.22	1082.33
704.55	1082.52
704.89	1081.19
705.23	1081.42
705.56	1083.76
705.90	1083.32
706.23	1082.61
706.57	1082.12
706.91	1081.84
707.24	1079.24
707.58	1078.66
707.91	1076.88
708.25	1075.55
708.58	1076.32
708.92	1080.46
709.26	1081.40
709.59	1081.84
709.93	1084.07
710.26	1083.97
710.60	1076.27
710.93	1073.37
711.27	1073.46
711.60	1074.28
711.94	1076.53
712.27	1081.49
712.61	1085.10
712.94	1087.81
713.28	1088.04
713.61	1083.76
713.95	1084.02
714.28	1083.48
714.62	1079.92
714.95	1079.10
715.29	1082.64
715.62	1078.87
715.96	1080.04
716.29	1081.66
716.63	1079.81
716.96	1076.62
717.29	1080.16
717.63	1078.80
717.96	1078.21
718.30	1078.57
718.63	1082.50
718.97	1083.74
719.30	1085.56
719.63	1086.85
719.97	1089.29
720.30	1084.39
720.64	1082.22
720.97	1078.24
721.30	1078.03
721.64	1075.03
721.97	1078.10
722.31	1081.54
722.64	1082.12
722.97	1077.68
723.31	1079.67
723.64	1082.12
723.97	1080.98
724.31	1081.70
724.64	1086.43
724.98	1085.45
725.31	1081.75
725.64	1082.64
725.98	1083.57
726.31	1085.19
726.64	1082.97
726.97	1085.91
727.31	1084.98
727.64	1084.07
727.97	1079.38
728.31	1080.51
728.64	1078.31
728.97	1077.00
729.31	1075.52
729.64	1077.58
729.97	1078.89
730.30	1079.24
730.64	1078.64
730.97	1080.58
731.30	1083.06
731.63	1083.39
731.97	1082.12
732.30	1083.11
732.63	1082.76
732.96	1083.46
733.30	1083.48
733.63	1083.48
733.96	1082.19
734.29	1080.95
734.63	1077.35
734.96	1079.36
735.29	1083.13
735.62	1083.50
735.95	1085.19
736.29	1085.63
736.62	1084.96
736.95	1080.53
737.28	1081.70
737.61	1082.83
737.94	1080.67
738.28	1079.62
738.61	1081.70
738.94	1081.33
739.27	1077.72
739.60	1080.34
739.93	1080.11
740.27	1079.67
740.60	1079.67
740.93	1081.42
741.26	1081.40
741.59	1082.78
741.92	1087.58
742.25	1086.64
742.58	1086.85
742.91	1086.41
743.25	1085.21
743.58	1082.05
743.91	1081.98
744.24	1084.72
744.57	1084.74
744.90	1083.88
745.23	1081.28
745.56	1082.64
745.89	1080.58
746.22	1079.90
746.55	1079.69
746.88	1080.81
747.21	1078.80
747.54	1078.80
747.87	1078.19
748.20	1077.14
748.53	1074.19
748.87	1075.55
749.20	1074.73
749.53	1075.90
749.86	1077.84
750.19	1077.84
750.52	1079.15
750.85	1078.54
751.18	1075.69
751.51	1075.29
751.84	1075.52
752.16	1073.14
752.49	1073.07
752.82	1081.05
753.15	1082.47
753.48	1085.59
753.81	1086.78
754.14	1086.90
754.47	1081.82
754.80	1081.07
755.13	1078.57
755.46	1080.27
755.79	1078.57
756.12	1080.93
756.45	1080.67
756.78	1082.66
757.11	1080.79
757.43	1080.86
757.76	1078.96
758.09	1078.78
758.42	1079.99
758.75	1080.65
759.08	1083.79
759.41	1084.53
759.74	1082.12
760.07	1082.31
760.39	1082.26
760.72	1079.24
761.05	1080.20
761.38	1081.70
761.71	1077.07
762.04	1077.79
762.36	1085.03
762.69	1083.08
763.02	1084.35
763.35	1088.65
763.68	1084.77
764.01	1078.00
764.33	1078.45
764.66	1076.20
764.99	1075.85
765.32	1079.69
765.65	1081.26
765.97	1077.77
766.30	1078.75
766.63	1076.76
766.96	1077.61
767.28	1074.38
767.61	1077.37
767.94	1076.76
768.27	1079.13
768.59	1077.33
768.92	1082.17
769.25	1079.67
769.58	1081.82
769.90	1081.28
770.23	1079.34
770.56	1074.87
770.89	1078.31
771.21	1075.31
771.54	1077.04
771.87	1077.28
772.19	1081.07
772.52	1079.22
772.85	1080.93
773.17	1078.68
773.50	1081.14
773.83	1078.85
774.15	1078.61
774.48	1080.53
774.81	1082.90
775.13	1079.83
775.46	1081.56
775.79	1083.46
776.11	1080.84
776.44	1078.85
776.77	1082.33
777.09	1082.92
777.42	1079.76
777.74	1078.85
778.07	1077.61
778.40	1078.50
778.72	1078.24
779.05	1080.20
779.37	1083.01
779.70	1082.57
780.03	1078.07
780.35	1078.43
780.68	1075.73
781.00	1074.54
781.33	1076.20
781.65	1077.75
781.98	1075.85
782.31	1079.36
782.63	1078.87
782.96	1079.06
783.28	1079.62
783.61	1081.98
783.93	1079.38
784.26	1083.53
784.58	1085.73
784.91	1087.53
785.23	1083.97
785.56	1085.35
785.88	1082.36
786.21	1077.89
786.53	1078.00
786.86	1078.14
787.18	1078.59
787.51	1074.77
787.83	1078.26
788.16	1074.47
788.48	1078.26
788.81	1080.46
789.13	1084.16
789.46	1083.53
789.78	1087.39
790.10	1088.75
790.43	1086.66
790.75	1083.55
791.08	1083.43
791.40	1080.79
791.73	1076.34
792.05	1077.33
792.37	1079.60
792.70	1078.36
793.02	1080.67
793.35	1082.36
793.67	1080.39
793.99	1079.97
794.32	1078.31
794.64	1076.06
794.96	1074.12
795.29	1077.09
795.61	1078.10
795.93	1077.11
796.26	1076.88
796.58	1079.85
796.91	1078.92
797.23	1079.55
797.55	1081.89
797.87	1080.88
798.20	1080.02
798.52	1078.50
798.84	1075.03
799.17	1075.22
799.49	1075.64
799.81	1077.25
800.14	1078.85
800.46	1080.93
800.78	1084.93
801.10	1085.73
801.43	1084.23
801.75	1084.44
802.07	1085.75
802.40	1083.60
802.72	1086.69
803.04	1088.98
803.36	1090.53
803.69	1093.57
804.01	1093.90
804.33	1093.92
804.65	1089.12
804.97	1085.59
805.30	1080.25
805.62	1078.14
805.94	1074.14
806.26	1073.63
806.58	1073.56
806.91	1073.79
807.23	1074.80
807.55	1075.90
807.87	1078.14
808.19	1076.97
808.52	1079.20
808.84	1078.59
809.16	1080.81
809.48	1077.75
809.80	1081.56
810.12	1081.51
810.44	1078.61
810.77	1075.92
811.09	1076.20
811.41	1076.01
811.73	1073.51
812.05	1075.43
812.37	1078.50
812.69	1080.37
813.01	1081.77
813.33	1085.56
813.66	1084.93
813.98	1084.98
814.30	1084.00
814.62	1080.16
814.94	1077.44
815.26	1079.13
815.58	1077.21
815.90	1080.56
816.22	1082.01
816.54	1083.97
816.86	1084.04
817.18	1084.79
817.50	1083.86
817.82	1085.82
818.14	1083.20
818.46	1080.84
818.78	1080.25
819.10	1078.71
819.42	1076.76
819.74	1080.81
820.06	1082.71
820.38	1080.39
820.70	1082.36
821.02	1081.14
821.34	1078.92
821.66	1078.45
821.98	1076.39
822.30	1074.10
822.62	1076.65
822.94	1076.62
823.26	1076.13
823.58	1077.35
823.90	1076.86
824.22	1072.62
824.54	1073.02
824.86	1071.90
825.18	1075.73
825.50	1077.91
825.81	1081.05
826.13	1075.78
826.45	1078.73
826.77	1076.79
827.09	1076.34
827.41	1074.24
827.73	1077.63
828.05	1076.32
828.36	1076.46
828.68	1075.15
829.00	1075.94
829.32	1079.24
829.64	1081.21
829.96	1080.95
830.28	1081.94
830.59	1082.80
830.91	1077.65
831.23	1077.91
831.55	1076.79
831.87	1077.18
832.19	1076.74
832.50	1077.51
832.82	1075.24
833.14	1078.17
833.46	1077.28
833.78	1077.44
834.09	1078.40
834.41	1075.66
834.73	1076.83
835.05	1076.04
835.36	1078.07
835.68	1078.43
836.00	1080.98
836.32	1078.57
836.63	1079.69
836.95	1076.23
837.27	1076.58
837.59	1077.11
837.90	1078.10
838.22	1079.55
838.54	1082.99
838.85	1083.95
839.17	1083.36
839.49	1081.02
839.80	1082.05
840.12	1077.09
840.44	1076.53
840.76	1074.84
841.07	1076.25
841.39	1075.45
841.71	1075.31
842.02	1071.29
842.34	1071.05
842.65	1073.42
842.97	1071.64
843.29	1075.76
843.60	1079.01
843.92	1085.49
844.24	1082.31
844.55	1084.67
844.87	1084.74
845.18	1082.03
845.50	1077.51
845.82	1079.10
846.13	1080.09
846.45	1079.13
846.76	1080.20
847.08	1084.11
847.40	1081.51
847.71	1079.48
848.03	1079.62
848.34	1081.40
848.66	1079.10
848.97	1081.12
849.29	1081.89
849.60	1081.05
849.92	1080.74
850.24	1077.98
850.55	1078.05
850.87	1075.50
851.18	1077.07
851.50	1078.57
851.81	1083.27
852.13	1082.08
852.44	1079.62
852.76	1078.12
853.07	1077.93
853.39	1075.59
853.70	1075.94
854.01	1079.95
854.33	1079.50
854.64	1079.83
854.96	1079.10
855.27	1079.74
855.59	1078.33
855.90	1082.03
856.22	1081.70
856.53	1085.63
856.84	1083.06
857.16	1082.87
857.47	1079.20
857.79	1076.23
858.10	1070.37
858.41	1075.03
858.73	1075.36
859.04	1076.65
859.36	1078.87
859.67	1080.04
859.98	1079.43
860.30	1080.53
860.61	1079.85
860.92	1079.22
861.24	1081.02
861.55	1080.23
861.87	1077.86
862.18	1077.04
862.49	1076.69
862.81	1077.21
863.12	1078.92
863.43	1079.69
863.74	1079.08
864.06	1082.17
864.37	1079.88
864.68	1078.28
865.00	1080.34
865.31	1081.16
865.62	1078.82
865.94	1078.94
866.25	1077.89
866.56	1079.50
866.87	1078.87
867.19	1081.30
867.50	1080.91
867.81	1083.48
868.12	1080.06
868.44	1082.29
868.75	1082.05
869.06	1085.59
869.37	1080.95
869.68	1083.29
870.00	1081.58
870.31	1078.50
870.62	1075.36
870.93	1078.89
871.24	1078.07
871.56	1078.64
871.87	1077.93
872.18	1078.40
872.49	1075.78
872.80	1074.84
873.12	1075.45
873.43	1076.93
873.74	1078.52
874.05	1079.88
874.36	1079.43
874.67	1074.89
874.98	1075.29
875.29	1071.73
875.61	1070.89
875.92	1073.46
876.23	1078.31
876.54	1076.44
876.85	1078.28
877.16	1081.47
877.47	1082.40
877.78	1081.75
878.09	1085.26
878.40	1084.32
878.72	1083.29
879.03	1080.93
879.34	1079.67
879.65	1080.13
879.96	1081.44
880.27	1079.81
880.58	1079.06
880.89	1080.91
881.20	1077.91
881.51	1079.01
881.82	1078.64
882.13	1078.17
882.44	1078.87
882.75	1079.60
883.06	1077.82
883.37	1078.92
883.68	1081.56
883.99	1078.45
884.30	1075.20
884.61	1074.12
884.92	1074.61
885.23	1072.25
885.54	1072.78
885.85	1074.75
886.16	1074.96
886.47	1071.40
886.78	1070.91
887.08	1073.28
887.39	1077.47
887.70	1078.57
888.01	1079.99
888.32	1082.08
888.63	1082.47
888.94	1080.70
889.25	1080.81
889.56	1082.54
889.87	1081.23
890.17	1080.74
890.48	1080.81
890.79	1079.57
891.10	1078.26
891.41	1080.20
891.72	1082.03
892.03	1081.26
892.34	1083.95
892.64	1085.05
892.95	1084.14
893.26	1080.81
893.57	1081.82
893.88	1077.25
894.18	1077.33
894.49	1075.10
894.80	1076.65
895.11	1074.87
895.42	1077.35
895.72	1075.87
896.03	1077.63
896.34	1074.33
896.65	1074.40
896.96	1074.19
897.26	1074.45
897.57	1076.15
897.88	1078.24
898.19	1079.20
898.49	1078.17
898.80	1078.50
899.11	1079.20
899.41	1080.58
899.72	1082.08
900.03	1084.67
900.34	1085.49
900.64	1081.26
900.95	1078.33
901.26	1076.04
901.56	1072.32
901.87	1071.61
902.18	1071.05
902.48	1072.22
902.79	1071.92
903.10	1074.56
903.40	1075.43
903.71	1078.57
904.02	1079.97
904.32	1081.14
904.63	1081.87
904.94	1079.60
905.24	1080.70
905.55	1081.51
905.85	1082.76
906.16	1082.54
906.47	1085.42
906.77	1084.28
907.08	1082.05
907.38	1081.09
907.69	1080.16
908.00	1079.43
908.30	1077.54
908.61	1076.86
908.91	1074.33
909.22	1076.04
909.52	1073.67
909.83	1073.25
910.14	1074.91
910.44	1074.87
910.75	1075.55
911.05	1076.90
911.36	1077.79
911.66	1077.84
911.97	1079.55
912.27	1077.79
912.58	1078.26
912.88	1076.08
913.19	1074.98
913.49	1076.23
913.80	1076.95
914.10	1078.12
914.41	1079.50
914.71	1079.53
915.01	1077.56
915.32	1076.72
915.62	1074.73
915.93	1079.06
916.23	1082.10
916.54	1086.27
916.84	1088.26
917.15	1089.07
917.45	1087.39
917.75	1084.04
918.06	1081.05
918.36	1076.23
918.67	1077.23
918.97	1076.08
919.27	1078.12
919.58	1074.66
919.88	1078.61
920.18	1080.51
920.49	1079.17
920.79	1077.89
921.10	1082.31
921.40	1082.92
921.70	1079.74
922.01	1081.00
922.31	1079.22
922.61	1079.34
922.92	1077.56
923.22	1075.80
923.52	1076.95
923.82	1079.15
924.13	1076.20
924.43	1076.97
924.73	1077.89
925.04	1076.15
925.34	1075.50
925.64	1075.55
925.94	1071.61
926.25	1075.87
926.55	1078.07
926.85	1078.64
927.15	1079.48
927.46	1083.83
927.76	1083.22
928.06	1079.13
928.36	1078.73
928.67	1081.75
928.97	1079.90
929.27	1080.06
929.57	1083.93
929.87	1080.63
930.18	1077.68
930.48	1076.13
930.78	1072.55
931.08	1068.95
931.38	1073.81
931.69	1073.79
931.99	1074.75
932.29	1075.66
932.59	1077.63
932.89	1076.44
933.19	1077.07
933.49	1080.39
933.80	1079.15
934.10	1079.55
934.40	1078.94
934.70	1079.08
935.00	1076.04
935.30	1076.72
935.60	1076.90
935.90	1074.47
936.20	1073.79
936.50	1074.87
936.81	1076.60
937.11	1073.67
937.41	1075.08
937.71	1073.23
938.01	1072.62
938.31	1071.12
938.61	1073.42
938.91	1071.61
939.21	1074.80
939.51	1074.96
939.81	1074.59
940.11	1074.03
940.41	1077.63
940.71	1074.94
941.01	1077.72
941.31	1080.72
941.61	1084.44
941.91	1083.46
942.21	1086.78
942.51	1085.28
942.81	1085.14
943.11	1083.60
943.41	1082.15
943.71	1077.68
944.01	1076.55
944.31	1074.21
944.61	1071.68
944.90	1073.93
945.20	1076.55
945.50	1078.89
945.80	1083.11
946.10	1083.57
946.40	1080.88
946.70	1078.17
947.00	1076.44
947.30	1072.15
947.60	1074.03
947.89	1075.15
948.19	1079.41
948.49	1081.16
948.79	1082.17
949.09	1080.02
949.39	1081.07
949.69	1077.37
949.98	1076.76
950.28	1075.71
950.58	1078.71
950.88	1080.02
951.18	1088.28
951.48	1087.81
951.77	1087.13
952.07	1083.06
952.37	1081.63
952.67	1075.41
952.97	1073.14
953.26	1073.79
953.56	1076.32
953.86	1075.92
954.16	1074.54
954.45	1075.15
954.75	1077.56
955.05	1076.76
955.35	1074.59
955.64	1077.21
955.94	1077.21
956.24	1076.53
956.54	1077.37
956.83	1079.78
957.13	1077.96
957.43	1078.54
957.72	1082.73
958.02	1082.43
958.32	1082.97
958.61	1083.01
958.91	1087.02
959.21	1082.52
959.50	1083.18
959.80	1082.61
960.10	1082.54
960.39	1078.24
960.69	1076.48
960.99	1075.90
961.28	1076.46
961.58	1075.69
961.87	1077.61
962.17	1080.02
962.47	1078.52
962.76	1077.65
963.06	1081.00
963.36	1081.16
963.65	1080.65
963.95	1080.67
964.24	1080.88
964.54	1077.44
964.83	1074.45
965.13	1072.55
965.42	1071.15
965.72	1072.67
966.02	1073.70
966.31	1076.88
966.61	1077.51
966.90	1079.71
967.20	1077.49
967.49	1076.58
967.79	1075.52
968.08	1076.51
968.38	1074.63
968.67	1076.30
968.97	1078.10
969.26	1075.85
969.56	1076.39
969.85	1078.50
970.15	1080.51
970.44	1080.93
970.74	1085.94
971.03	1081.40
971.32	1079.48
971.62	1075.36
971.91	1073.39
972.21	1068.64
972.50	1071.47
972.80	1072.43
973.09	1074.31
973.38	1078.21
973.68	1081.94
973.97	1081.00
974.27	1081.75
974.56	1083.41
974.85	1081.09
975.15	1077.51
975.44	1075.94
975.73	1076.39
976.03	1075.03
976.32	1077.16
976.61	1076.25
976.91	1077.77
977.20	1079.62
977.49	1076.69
977.79	1073.67
978.08	1074.40
978.37	1075.34
978.67	1071.66
978.96	1073.32
979.25	1075.76
979.55	1077.30
979.84	1075.22
980.13	1077.09
980.42	1076.15
980.72	1072.95
981.01	1073.11
981.30	1074.21
981.59	1072.57
981.89	1075.29
982.18	1076.55
982.47	1076.18
982.76	1076.60
983.06	1077.37
983.35	1075.94
983.64	1076.23
983.93	1076.04
984.22	1076.79
984.52	1078.73
984.81	1078.26
985.10	1073.53
985.39	1074.70
985.68	1075.62
985.97	1073.79
986.27	1076.69
986.56	1080.27
986.85	1077.37
987.14	1074.56
987.43	1075.92
987.72	1075.17
988.01	1076.93
988.31	1080.56
988.60	1085.63
988.89	1085.87
989.18	1085.49
989.47	1085.03
989.76	1080.67
990.05	1076.97
990.34	1075.80
990.63	1072.34
990.92	1071.75
991.21	1076.44
991.51	1079.34
991.80	1079.24
992.09	1083.29
992.38	1082.52
992.67	1080.77
992.96	1078.40
993.25	1078.85
993.54	1078.10
993.83	1079.43
994.12	1079.15
994.41	1080.04
994.70	1081.12
994.99	1079.57
995.28	1078.28
995.57	1079.99
995.86	1079.55
996.15	1078.26
996.44	1076.62
996.73	1078.85
997.02	1074.35
997.31	1072.92
997.59	1074.40
997.88	1079.99
998.17	1079.57
998.46	1083.95
998.75	1083.83
999.04	1081.73
999.33	1078.36
999.62	1078.05
999.91	1076.81
1000.20	1079.83
1000.49	1079.01
1000.77	1079.92
1001.06	1079.27
1001.35	1076.86
1001.64	1074.84
1001.93	1076.11
1002.22	1076.44
1002.51	1077.40
1002.79	1082.64
1003.08	1082.92
1003.37	1085.24
1003.66	1086.59
1003.95	1086.31
1004.23	1082.08
1004.52	1083.25
1004.81	1082.29
1005.10	1082.31
1005.39	1079.90
1005.67	1083.32
1005.96	1080.70
1006.25	1078.12
1006.54	1077.30
1006.83	1077.82
1007.11	1072.11
1007.40	1072.64
1007.69	1071.64
1007.97	1069.72
1008.26	1071.87
1008.55	1073.44
1008.84	1074.12
1009.12	1075.62
1009.41	1078.57
1009.70	1073.98
1009.98	1076.74
1010.27	1076.48
1010.56	1080.25
1010.85	1076.93
1011.13	1078.03
1011.42	1076.27
1011.71	1074.33
1011.99	1073.18
1012.28	1075.15
1012.56	1079.38
1012.85	1082.69
1013.14	1083.18
1013.42	1081.14
1013.71	1078.24
1014.00	1077.28
1014.28	1071.66
1014.57	1073.70
1014.85	1074.91
1015.14	1073.77
1015.43	1072.69
1015.71	1074.17
1016.00	1073.28
1016.28	1071.59
1016.57	1076.39
1016.85	1077.61
1017.14	1078.89
1017.43	1076.30
1017.71	1075.78
1018.00	1074.10
1018.28	1072.25
1018.57	1069.86
1018.85	1071.87
1019.14	1073.11
1019.42	1070.72
1019.71	1069.32
1019.99	1069.48
1020.28	1071.68
1020.56	1071.43
1020.85	1072.76
1021.13	1073.77
1021.42	1074.21
1021.70	1072.11
1021.99	1073.16
1022.27	1073.35
1022.55	1082.15
1022.84	1075.71
>>>>>End Processed Spectral Data<<<<<
