SpectraSuite Data File
++++++++++++++++++++++++++++++++++++
Date: Mon Aug 26 10:22:13 PDT 2019
User: corrico
Dark Spectrum Present: No
Reference Spectrum Present: No
Number of Sampled Component Spectra: 1
Spectrometers: USB2+H06089
Integration Time (usec): 2000 (USB2+H06089)
Spectra Averaged: 20 (USB2+H06089)
Boxcar Smoothing: 2 (USB2+H06089)
Correct for Electrical Dark: No (USB2+H06089)
Strobe/Lamp Enabled: No (USB2+H06089)
Correct for Detector Non-linearity: No (USB2+H06089)
Correct for Stray Light: No (USB2+H06089)
Number of Pixels in Processed Spectrum: 2048
>>>>>Begin Processed Spectral Data<<<<<
339.70	1034.28
340.07	1034.28
340.45	999.17
340.82	975.84
341.19	950.09
341.57	924.82
341.94	912.93
342.31	907.71
342.69	906.07
343.06	904.64
343.43	902.02
343.81	900.47
344.18	902.74
344.55	904.92
344.93	910.68
345.30	916.88
345.67	924.72
346.04	930.46
346.42	936.52
346.79	941.48
347.16	950.33
347.54	957.84
347.91	964.30
348.28	975.54
348.65	984.29
349.03	991.66
349.40	1004.53
349.77	1018.84
350.14	1023.66
350.52	1031.78
350.89	1041.19
351.26	1045.31
351.63	1047.97
352.01	1053.83
352.38	1060.26
352.75	1064.62
353.12	1064.59
353.50	1067.64
353.87	1072.34
354.24	1076.95
354.61	1075.22
354.98	1080.84
355.36	1083.11
355.73	1081.96
356.10	1077.98
356.47	1081.58
356.84	1081.73
357.22	1081.87
357.59	1084.72
357.96	1088.68
358.33	1087.53
358.70	1086.92
359.08	1085.10
359.45	1082.05
359.82	1080.53
360.19	1081.16
360.56	1082.22
360.94	1082.43
361.31	1083.20
361.68	1083.18
362.05	1082.12
362.42	1080.39
362.79	1078.80
363.16	1077.49
363.54	1075.76
363.91	1074.80
364.28	1076.01
364.65	1075.94
365.02	1074.59
365.39	1076.11
365.76	1079.48
366.14	1077.91
366.51	1077.51
366.88	1079.08
367.25	1077.33
367.62	1076.23
367.99	1075.43
368.36	1077.09
368.73	1074.38
369.10	1073.39
369.48	1069.84
369.85	1070.05
370.22	1068.06
370.59	1070.09
370.96	1070.28
371.33	1073.91
371.70	1075.73
372.07	1074.91
372.44	1074.94
372.81	1077.16
373.18	1077.51
373.55	1080.34
373.93	1082.92
374.30	1083.36
374.67	1082.85
375.04	1080.86
375.41	1077.40
375.78	1078.59
376.15	1079.34
376.52	1081.33
376.89	1082.29
377.26	1084.89
377.63	1082.47
378.00	1083.29
378.37	1082.29
378.74	1080.65
379.11	1080.25
379.48	1082.19
379.85	1081.26
380.22	1080.48
380.59	1081.37
380.96	1077.89
381.33	1077.61
381.70	1079.24
382.07	1079.08
382.44	1082.61
382.81	1084.81
383.18	1084.53
383.55	1085.89
383.92	1088.23
384.29	1086.78
384.66	1085.40
385.03	1085.12
385.40	1086.59
385.77	1082.83
386.14	1081.35
386.51	1083.86
386.88	1084.23
387.25	1083.39
387.62	1083.41
387.99	1083.27
388.36	1082.29
388.73	1083.67
389.10	1080.44
389.46	1085.91
389.83	1088.23
390.20	1089.38
390.57	1090.24
390.94	1092.82
391.31	1088.33
391.68	1086.45
392.05	1085.14
392.42	1085.99
392.79	1088.44
393.16	1093.90
393.53	1093.87
393.89	1096.56
394.26	1096.28
394.63	1091.93
395.00	1091.25
395.37	1088.98
395.74	1086.94
396.11	1084.84
396.48	1087.20
396.84	1084.46
397.21	1088.19
397.58	1090.01
397.95	1090.01
398.32	1088.68
398.69	1090.95
399.06	1093.90
399.42	1094.36
399.79	1093.78
400.16	1095.25
400.53	1094.20
400.90	1091.86
401.27	1089.19
401.64	1091.18
402.00	1091.46
402.37	1089.94
402.74	1090.03
403.11	1093.92
403.48	1090.95
403.84	1087.95
404.21	1088.79
404.58	1088.54
404.95	1088.61
405.32	1091.74
405.68	1093.83
406.05	1092.21
406.42	1096.05
406.79	1095.82
407.16	1098.32
407.52	1099.42
407.89	1102.04
408.26	1100.26
408.63	1096.54
408.99	1094.93
409.36	1093.99
409.73	1093.92
410.10	1092.66
410.47	1095.96
410.83	1097.73
411.20	1101.67
411.57	1101.78
411.94	1105.74
412.30	1107.66
412.67	1103.47
413.04	1101.57
413.40	1102.44
413.77	1099.63
414.14	1098.04
414.51	1103.14
414.87	1104.55
415.24	1104.94
415.61	1107.35
415.97	1107.64
416.34	1106.84
416.71	1107.75
417.08	1109.23
417.44	1110.44
417.81	1112.06
418.18	1115.17
418.54	1113.44
418.91	1116.76
419.28	1115.38
419.64	1119.78
420.01	1119.76
420.38	1123.08
420.74	1121.80
421.11	1124.98
421.48	1122.45
421.84	1123.39
422.21	1124.30
422.58	1127.93
422.94	1126.73
423.31	1130.78
423.68	1133.57
424.04	1138.39
424.41	1142.18
424.77	1147.63
425.14	1153.23
425.51	1158.87
425.87	1161.91
426.24	1166.69
426.61	1175.39
426.97	1183.63
427.34	1188.83
427.70	1197.75
428.07	1205.96
428.44	1213.80
428.80	1219.49
429.17	1230.16
429.53	1241.33
429.90	1254.81
430.27	1266.86
430.63	1280.34
431.00	1290.10
431.36	1303.58
431.73	1316.48
432.09	1330.59
432.46	1345.18
432.83	1369.61
433.19	1386.63
433.56	1407.93
433.92	1432.03
434.29	1461.27
434.65	1488.09
435.02	1519.99
435.38	1552.27
435.75	1584.36
436.11	1621.10
436.48	1663.00
436.84	1705.41
437.21	1750.72
437.57	1800.88
437.94	1849.47
438.30	1901.24
438.67	1960.69
439.03	2020.65
439.40	2086.75
439.76	2155.54
440.13	2229.50
440.49	2306.83
440.86	2381.42
441.22	2467.18
441.59	2553.83
441.95	2651.59
442.32	2752.56
442.68	2878.70
443.05	3001.50
443.41	3132.99
443.78	3260.95
444.14	3398.41
444.51	3529.22
444.87	3692.10
445.24	3848.61
445.60	4025.79
445.96	4209.62
446.33	4421.06
446.69	4615.14
447.06	4833.28
447.42	5059.07
447.79	5298.53
448.15	5550.21
448.51	5820.16
448.88	6132.86
449.24	6429.83
449.61	6769.25
449.97	7126.39
450.33	7500.93
450.70	7851.14
451.06	8274.38
451.43	8669.04
451.79	9130.69
452.15	9610.29
452.52	10146.43
452.88	10696.46
453.24	11328.22
453.61	12014.67
453.97	12720.34
454.34	13399.47
454.70	14186.90
455.06	14964.96
455.43	15710.99
455.79	16392.92
456.15	17203.99
456.52	17961.29
456.88	18864.25
457.24	19756.04
457.61	20859.81
457.97	21915.23
458.33	22989.02
458.70	24042.40
459.06	25039.03
459.42	26043.98
459.79	26948.44
460.15	27995.73
460.51	28963.36
460.88	30032.35
461.24	30998.62
461.60	32138.55
461.96	33162.86
462.33	34185.33
462.69	35189.95
463.05	36272.71
463.42	37253.14
463.78	38155.93
464.14	38878.83
464.50	39622.95
464.87	40164.08
465.23	40526.52
465.59	40959.77
465.95	41310.24
466.32	41540.72
466.68	41777.60
467.04	41901.53
467.40	41906.12
467.77	42015.10
468.13	41951.55
468.49	41792.04
468.85	41682.55
469.22	41524.22
469.58	41255.69
469.94	41087.61
470.30	40849.77
470.66	40473.53
471.03	39972.09
471.39	39598.26
471.75	38890.41
472.11	38197.92
472.47	37719.56
472.84	37207.82
473.20	36496.30
473.56	36101.62
473.92	35534.20
474.28	34899.63
474.65	34252.92
475.01	33591.37
475.37	32790.84
475.73	32132.61
476.09	31461.20
476.45	30813.85
476.81	30293.46
477.18	29743.20
477.54	29252.25
477.90	28809.23
478.26	28273.93
478.62	27751.85
478.98	27299.96
479.34	26867.38
479.71	26306.26
480.07	25869.38
480.43	25425.82
480.79	24969.54
481.15	24518.52
481.51	24183.87
481.87	23884.77
482.23	23531.07
482.59	23219.19
482.96	22901.14
483.32	22559.74
483.68	22170.26
484.04	21814.00
484.40	21388.31
484.76	20945.29
485.12	20522.54
485.48	20082.50
485.84	19589.58
486.20	19178.35
486.56	18781.84
486.92	18401.69
487.28	18012.22
487.64	17626.57
488.00	17252.51
488.37	16868.31
488.73	16454.79
489.09	16030.63
489.45	15639.25
489.81	15198.85
490.17	14765.27
490.53	14354.55
490.89	13941.10
491.25	13525.63
491.61	13131.55
491.97	12735.79
492.33	12331.49
492.69	11966.34
493.05	11622.84
493.41	11291.61
493.77	10969.79
494.13	10674.57
494.49	10393.17
494.85	10116.38
495.21	9852.37
495.57	9600.36
495.93	9341.50
496.29	9090.71
496.64	8860.57
497.00	8614.34
497.36	8366.92
497.72	8128.49
498.08	7907.52
498.44	7693.41
498.80	7494.72
499.16	7299.76
499.52	7115.67
499.88	6936.39
500.24	6760.94
500.60	6587.39
500.96	6432.68
501.32	6269.71
501.68	6102.69
502.03	5925.49
502.39	5771.46
502.75	5606.82
503.11	5453.94
503.47	5319.03
503.83	5198.87
504.19	5067.68
504.55	4945.69
504.91	4833.86
505.26	4710.84
505.62	4587.80
505.98	4481.45
506.34	4370.20
506.70	4256.08
507.06	4142.42
507.42	4043.11
507.78	3945.07
508.13	3857.27
508.49	3779.75
508.85	3713.89
509.21	3633.52
509.57	3550.36
509.93	3463.85
510.28	3373.77
510.64	3286.79
511.00	3209.81
511.36	3137.63
511.72	3076.42
512.07	3014.26
512.43	2956.21
512.79	2899.53
513.15	2835.79
513.51	2770.80
513.86	2716.19
514.22	2660.72
514.58	2606.05
514.94	2562.28
515.30	2519.70
515.65	2474.91
516.01	2436.38
516.37	2392.78
516.73	2352.03
517.08	2315.42
517.44	2272.57
517.80	2234.67
518.16	2200.41
518.51	2166.14
518.87	2133.70
519.23	2108.28
519.59	2075.89
519.94	2049.51
520.30	2022.78
520.66	1993.76
521.01	1961.63
521.37	1935.08
521.73	1905.73
522.09	1877.48
522.44	1852.67
522.80	1833.93
523.16	1812.14
523.51	1792.48
523.87	1773.12
524.23	1749.13
524.58	1728.25
524.94	1707.37
525.30	1684.83
525.65	1664.40
526.01	1652.04
526.37	1631.94
526.72	1618.20
527.08	1603.69
527.44	1589.48
527.79	1576.07
528.15	1561.98
528.51	1542.58
528.86	1528.72
529.22	1513.74
529.58	1493.36
529.93	1481.37
530.29	1471.87
530.65	1459.23
531.00	1445.44
531.36	1436.27
531.71	1427.00
532.07	1415.42
532.43	1402.82
532.78	1395.45
533.14	1387.89
533.49	1377.10
533.85	1367.72
534.21	1359.80
534.56	1351.89
534.92	1343.98
535.27	1337.17
535.63	1329.82
535.98	1321.56
536.34	1315.12
536.69	1307.10
537.05	1299.54
537.41	1292.65
537.76	1284.65
538.12	1275.76
538.47	1270.63
538.83	1265.08
539.18	1262.32
539.54	1261.46
539.89	1259.63
540.25	1254.43
540.60	1253.12
540.96	1244.11
541.31	1240.51
541.67	1234.14
542.02	1228.73
542.38	1219.30
542.73	1220.14
543.09	1215.88
543.44	1213.94
543.80	1211.44
544.15	1212.49
544.51	1205.66
544.86	1203.57
545.22	1200.41
545.57	1199.81
545.93	1195.19
546.28	1194.40
546.64	1193.16
546.99	1190.47
547.35	1187.45
547.70	1185.41
548.05	1183.70
548.41	1181.20
548.76	1180.47
549.12	1173.50
549.47	1171.20
549.83	1168.30
550.18	1163.06
550.53	1159.71
550.89	1163.06
551.24	1159.67
551.60	1157.84
551.95	1157.23
552.30	1155.43
552.66	1151.45
553.01	1151.38
553.37	1148.41
553.72	1146.04
554.07	1141.95
554.43	1140.03
554.78	1139.61
555.13	1140.40
555.49	1139.84
555.84	1139.23
556.19	1139.75
556.55	1138.88
556.90	1135.23
557.26	1135.89
557.61	1133.31
557.96	1129.05
558.32	1126.80
558.67	1125.89
559.02	1122.92
559.37	1125.00
559.73	1125.47
560.08	1119.57
560.43	1118.57
560.79	1118.89
561.14	1116.22
561.49	1113.98
561.85	1112.53
562.20	1114.14
562.55	1112.15
562.90	1115.76
563.26	1116.51
563.61	1124.42
563.96	1125.21
564.32	1125.73
564.67	1121.87
565.02	1122.45
565.37	1118.33
565.73	1115.20
566.08	1112.76
566.43	1110.49
566.78	1110.42
567.14	1109.02
567.49	1109.53
567.84	1110.35
568.19	1109.72
568.54	1107.78
568.90	1106.39
569.25	1102.98
569.60	1100.57
569.95	1102.88
570.31	1100.68
570.66	1099.63
571.01	1101.36
571.36	1102.35
571.71	1100.47
572.06	1101.25
572.42	1103.91
572.77	1101.43
573.12	1098.86
573.47	1098.58
573.82	1096.89
574.18	1096.12
574.53	1098.60
574.88	1100.73
575.23	1102.84
575.58	1103.87
575.93	1102.53
576.28	1099.65
576.64	1099.75
576.99	1095.39
577.34	1093.52
577.69	1091.42
578.04	1089.71
578.39	1089.19
578.74	1094.69
579.09	1095.86
579.44	1093.92
579.80	1098.32
580.15	1098.23
580.50	1093.83
580.85	1096.47
581.20	1098.83
581.55	1097.97
581.90	1095.16
582.25	1095.58
582.60	1093.36
582.95	1094.46
583.30	1092.87
583.65	1094.01
584.00	1092.33
584.35	1091.18
584.71	1090.22
585.06	1089.80
585.41	1091.72
585.76	1093.15
586.11	1095.37
586.46	1094.57
586.81	1092.28
587.16	1090.32
587.51	1090.22
587.86	1088.19
588.21	1089.64
588.56	1090.29
588.91	1090.67
589.26	1092.89
589.61	1090.41
589.96	1087.39
590.31	1088.23
590.66	1085.59
591.01	1083.53
591.36	1085.80
591.71	1085.94
592.06	1086.24
592.41	1085.42
592.76	1083.22
593.10	1084.32
593.45	1084.98
593.80	1082.26
594.15	1084.51
594.50	1085.75
594.85	1081.42
595.20	1080.06
595.55	1079.67
595.90	1081.77
596.25	1081.98
596.60	1086.03
596.95	1089.52
597.30	1091.95
597.64	1100.85
597.99	1102.21
598.34	1101.32
598.69	1101.18
599.04	1098.86
599.39	1087.62
599.74	1086.64
600.09	1089.36
600.44	1085.94
600.78	1090.01
601.13	1088.26
601.48	1088.68
601.83	1085.33
602.18	1087.86
602.53	1087.95
602.88	1092.73
603.22	1092.98
603.57	1092.52
603.92	1092.80
604.27	1090.15
604.62	1086.73
604.97	1085.59
605.31	1085.77
605.66	1083.27
606.01	1086.80
606.36	1087.20
606.71	1089.50
607.05	1088.26
607.40	1089.05
607.75	1086.80
608.10	1087.53
608.44	1085.33
608.79	1090.13
609.14	1092.68
609.49	1092.94
609.84	1091.56
610.18	1091.39
610.53	1089.26
610.88	1086.83
611.23	1087.16
611.57	1088.96
611.92	1089.43
612.27	1085.82
612.62	1084.30
612.96	1082.76
613.31	1081.28
613.66	1078.50
614.00	1080.25
614.35	1081.68
614.70	1081.91
615.05	1085.24
615.39	1088.23
615.74	1086.83
616.09	1086.92
616.43	1084.77
616.78	1079.50
617.13	1079.34
617.47	1080.48
617.82	1081.02
618.17	1081.58
618.51	1082.52
618.86	1081.12
619.21	1080.41
619.55	1083.76
619.90	1086.41
620.25	1089.03
620.59	1088.89
620.94	1090.08
621.29	1085.87
621.63	1084.25
621.98	1080.06
622.32	1081.33
622.67	1078.40
623.02	1078.99
623.36	1078.12
623.71	1080.88
624.05	1079.34
624.40	1082.24
624.75	1083.48
625.09	1082.54
625.44	1082.78
625.78	1085.96
626.13	1088.35
626.48	1087.69
626.82	1089.73
627.17	1088.77
627.51	1087.25
627.86	1083.48
628.20	1083.74
628.55	1082.78
628.89	1082.19
629.24	1081.54
629.58	1085.12
629.93	1083.62
630.28	1084.35
630.62	1087.11
630.97	1085.59
631.31	1084.63
631.66	1085.84
632.00	1084.02
632.35	1083.76
632.69	1082.10
633.04	1079.60
633.38	1078.92
633.73	1082.54
634.07	1081.26
634.42	1083.64
634.76	1085.80
635.11	1084.98
635.45	1082.87
635.79	1082.17
636.14	1084.46
636.48	1084.23
636.83	1086.76
637.17	1085.94
637.52	1087.30
637.86	1087.25
638.21	1086.76
638.55	1084.70
638.89	1085.73
639.24	1086.92
639.58	1085.82
639.93	1083.32
640.27	1082.22
640.61	1081.77
640.96	1079.29
641.30	1078.05
641.65	1080.25
641.99	1078.28
642.33	1079.34
642.68	1079.13
643.02	1079.08
643.37	1077.49
643.71	1082.45
644.05	1083.43
644.40	1084.04
644.74	1087.30
645.08	1090.08
645.43	1090.13
645.77	1085.99
646.11	1083.36
646.46	1080.27
646.80	1076.97
647.14	1077.18
647.49	1080.23
647.83	1083.18
648.17	1081.63
648.52	1082.92
648.86	1079.06
649.20	1079.01
649.55	1080.46
649.89	1082.71
650.23	1080.84
650.57	1082.76
650.92	1081.23
651.26	1079.53
651.60	1078.57
651.95	1081.98
652.29	1084.70
652.63	1086.73
652.97	1086.43
653.32	1085.82
653.66	1084.51
654.00	1082.43
654.34	1085.47
654.69	1084.74
655.03	1086.94
655.37	1088.00
655.71	1088.09
656.05	1084.65
656.40	1086.36
656.74	1084.63
657.08	1082.03
657.42	1080.30
657.76	1079.99
658.11	1077.58
658.45	1077.84
658.79	1082.19
659.13	1083.27
659.47	1081.84
659.82	1082.83
660.16	1079.95
660.50	1078.52
660.84	1079.62
661.18	1081.21
661.52	1080.37
661.87	1084.09
662.21	1085.12
662.55	1082.73
662.89	1085.45
663.23	1088.21
663.57	1087.37
663.91	1086.76
664.25	1085.77
664.60	1082.29
664.94	1079.97
665.28	1079.97
665.62	1077.77
665.96	1080.72
666.30	1078.78
666.64	1082.69
666.98	1080.88
667.32	1081.58
667.66	1080.79
668.01	1083.60
668.35	1080.84
668.69	1084.81
669.03	1085.91
669.37	1086.15
669.71	1084.67
670.05	1083.41
670.39	1080.51
670.73	1076.83
671.07	1075.43
671.41	1075.97
671.75	1077.18
672.09	1077.04
672.43	1079.22
672.77	1081.80
673.11	1081.28
673.45	1080.86
673.79	1082.29
674.13	1080.95
674.47	1079.36
674.81	1080.09
675.15	1078.99
675.49	1079.78
675.83	1082.97
676.17	1082.31
676.51	1083.13
676.85	1084.53
677.19	1083.64
677.53	1081.21
677.87	1081.66
678.21	1081.80
678.55	1083.46
678.89	1085.59
679.23	1084.16
679.57	1085.73
679.90	1085.54
680.24	1081.51
680.58	1078.14
680.92	1081.51
681.26	1079.03
681.60	1078.73
681.94	1081.63
682.28	1081.35
682.62	1077.75
682.96	1080.74
683.29	1080.77
683.63	1080.30
683.97	1079.92
684.31	1080.79
684.65	1078.94
684.99	1080.30
685.33	1081.84
685.67	1082.24
686.00	1084.77
686.34	1083.97
686.68	1080.13
687.02	1075.76
687.36	1078.38
687.70	1075.76
688.03	1077.11
688.37	1080.81
688.71	1081.02
689.05	1077.84
689.39	1076.53
689.72	1074.68
690.06	1074.91
690.40	1079.08
690.74	1082.47
691.08	1085.35
691.41	1084.42
691.75	1082.36
692.09	1079.71
692.43	1079.41
692.76	1080.44
693.10	1084.65
693.44	1082.15
693.78	1082.38
694.11	1080.37
694.45	1078.26
694.79	1077.42
695.13	1078.71
695.46	1078.64
695.80	1080.32
696.14	1080.70
696.48	1081.73
696.81	1082.17
697.15	1083.69
697.49	1082.08
697.82	1081.68
698.16	1079.36
698.50	1080.23
698.83	1078.52
699.17	1074.28
699.51	1076.08
699.84	1076.01
700.18	1078.33
700.52	1080.84
700.85	1089.22
701.19	1090.20
701.53	1091.58
701.86	1088.14
702.20	1086.10
702.54	1083.08
702.87	1076.60
703.21	1074.14
703.55	1076.37
703.88	1075.76
704.22	1075.29
704.55	1078.17
704.89	1077.84
705.23	1074.94
705.56	1078.31
705.90	1073.86
706.23	1072.20
706.57	1073.42
706.91	1074.73
707.24	1071.01
707.58	1073.51
707.91	1076.18
708.25	1077.40
708.58	1078.73
708.92	1080.60
709.26	1083.13
709.59	1084.04
709.93	1085.33
710.26	1083.79
710.60	1081.33
710.93	1080.88
711.27	1080.77
711.60	1078.24
711.94	1079.10
712.27	1083.53
712.61	1083.83
712.94	1085.21
713.28	1083.67
713.61	1082.76
713.95	1080.09
714.28	1079.22
714.62	1078.94
714.95	1077.56
715.29	1076.83
715.62	1077.75
715.96	1080.60
716.29	1080.04
716.63	1084.32
716.96	1087.11
717.29	1085.07
717.63	1081.84
717.96	1081.98
718.30	1080.88
718.63	1079.67
718.97	1080.98
719.30	1082.19
719.63	1081.68
719.97	1084.56
720.30	1083.90
720.64	1084.89
720.97	1083.83
721.30	1084.16
721.64	1082.45
721.97	1083.43
722.31	1082.54
722.64	1084.32
722.97	1084.84
723.31	1084.86
723.64	1083.69
723.97	1084.18
724.31	1082.10
724.64	1080.79
724.98	1079.43
725.31	1079.31
725.64	1077.47
725.98	1075.27
726.31	1074.61
726.64	1075.85
726.97	1078.03
727.31	1082.12
727.64	1086.20
727.97	1086.87
728.31	1088.70
728.64	1086.34
728.97	1082.73
729.31	1084.18
729.64	1083.74
729.97	1078.94
730.30	1079.97
730.64	1081.51
730.97	1078.78
731.30	1077.91
731.63	1080.16
731.97	1078.64
732.30	1076.74
732.63	1080.70
732.96	1084.14
733.30	1084.70
733.63	1090.76
733.96	1090.24
734.29	1088.84
734.63	1085.80
734.96	1082.92
735.29	1077.93
735.62	1075.85
735.95	1075.29
736.29	1075.57
736.62	1078.21
736.95	1078.66
737.28	1080.91
737.61	1077.09
737.94	1078.14
738.28	1078.38
738.61	1075.24
738.94	1076.90
739.27	1078.80
739.60	1077.11
739.93	1075.15
740.27	1074.26
740.60	1073.35
740.93	1071.75
741.26	1071.03
741.59	1072.43
741.92	1074.10
742.25	1075.52
742.58	1077.63
742.91	1078.40
743.25	1079.48
743.58	1082.29
743.91	1080.63
744.24	1078.71
744.57	1081.77
744.90	1078.99
745.23	1077.42
745.56	1078.24
745.89	1082.71
746.22	1080.23
746.55	1078.59
746.88	1078.10
747.21	1075.36
747.54	1071.92
747.87	1072.01
748.20	1075.17
748.53	1079.76
748.87	1081.98
749.20	1080.34
749.53	1082.45
749.86	1083.76
750.19	1082.92
750.52	1083.11
750.85	1085.68
751.18	1083.86
751.51	1082.22
751.84	1082.61
752.16	1081.96
752.49	1083.46
752.82	1083.81
753.15	1086.20
753.48	1082.01
753.81	1081.54
754.14	1079.78
754.47	1080.77
754.80	1079.08
755.13	1079.62
755.46	1081.77
755.79	1079.64
756.12	1080.25
756.45	1079.69
756.78	1078.94
757.11	1076.60
757.43	1079.55
757.76	1078.50
758.09	1077.42
758.42	1080.53
758.75	1082.19
759.08	1081.80
759.41	1081.28
759.74	1080.60
760.07	1081.02
760.39	1081.33
760.72	1083.18
761.05	1083.90
761.38	1085.05
761.71	1081.07
762.04	1080.74
762.36	1078.12
762.69	1075.73
763.02	1075.94
763.35	1079.69
763.68	1080.41
764.01	1082.47
764.33	1082.26
764.66	1083.53
764.99	1081.02
765.32	1078.45
765.65	1073.35
765.97	1077.07
766.30	1075.69
766.63	1074.35
766.96	1074.87
767.28	1079.83
767.61	1078.28
767.94	1078.17
768.27	1082.15
768.59	1083.86
768.92	1080.53
769.25	1079.48
769.58	1076.83
769.90	1076.69
770.23	1073.16
770.56	1073.46
770.89	1073.09
771.21	1076.81
771.54	1075.01
771.87	1077.86
772.19	1079.81
772.52	1082.61
772.85	1080.23
773.17	1078.99
773.50	1080.39
773.83	1078.12
774.15	1077.98
774.48	1077.86
774.81	1077.09
775.13	1075.97
775.46	1079.20
775.79	1074.28
776.11	1076.90
776.44	1079.38
776.77	1079.41
777.09	1076.88
777.42	1080.53
777.74	1080.51
778.07	1082.03
778.40	1080.65
778.72	1080.25
779.05	1081.70
779.37	1082.71
779.70	1081.54
780.03	1080.58
780.35	1078.89
780.68	1077.00
781.00	1074.03
781.33	1072.11
781.65	1073.53
781.98	1073.28
782.31	1071.22
782.63	1073.98
782.96	1077.21
783.28	1074.52
783.61	1077.51
783.93	1081.61
784.26	1079.22
784.58	1076.58
784.91	1078.61
785.23	1080.02
785.56	1077.28
785.88	1078.85
786.21	1081.35
786.53	1081.82
786.86	1082.40
787.18	1083.41
787.51	1084.14
787.83	1082.45
788.16	1085.59
788.48	1081.35
788.81	1081.98
789.13	1079.99
789.46	1082.80
789.78	1080.81
790.10	1085.70
790.43	1088.70
790.75	1087.55
791.08	1084.00
791.40	1083.48
791.73	1082.92
792.05	1081.58
792.37	1083.13
792.70	1084.30
793.02	1083.20
793.35	1081.30
793.67	1077.58
793.99	1079.57
794.32	1078.64
794.64	1080.48
794.96	1079.81
795.29	1081.98
795.61	1080.60
795.93	1080.91
796.26	1080.04
796.58	1079.71
796.91	1078.07
797.23	1076.48
797.55	1076.88
797.87	1076.69
798.20	1077.44
798.52	1080.30
798.84	1080.63
799.17	1080.65
799.49	1081.66
799.81	1080.88
800.14	1078.12
800.46	1075.78
800.78	1073.60
801.10	1072.36
801.43	1072.27
801.75	1071.78
802.07	1074.84
802.40	1075.64
802.72	1076.97
803.04	1075.62
803.36	1075.71
803.69	1073.49
804.01	1074.03
804.33	1074.28
804.65	1076.67
804.97	1077.00
805.30	1080.74
805.62	1081.89
805.94	1078.89
806.26	1078.03
806.58	1080.04
806.91	1078.78
807.23	1077.93
807.55	1081.26
807.87	1081.73
808.19	1077.07
808.52	1074.47
808.84	1073.93
809.16	1068.97
809.48	1068.78
809.80	1072.83
810.12	1076.76
810.44	1074.80
810.77	1078.21
811.09	1079.57
811.41	1080.88
811.73	1077.18
812.05	1079.88
812.37	1079.01
812.69	1077.11
813.01	1075.55
813.33	1077.33
813.66	1077.37
813.98	1079.13
814.30	1081.07
814.62	1078.54
814.94	1079.38
815.26	1077.82
815.58	1077.47
815.90	1074.80
816.22	1076.18
816.54	1076.65
816.86	1073.56
817.18	1072.29
817.50	1072.04
817.82	1072.67
818.14	1072.76
818.46	1075.52
818.78	1074.80
819.10	1077.98
819.42	1078.57
819.74	1077.49
820.06	1079.17
820.38	1078.94
820.70	1079.22
821.02	1075.52
821.34	1075.48
821.66	1074.54
821.98	1074.70
822.30	1068.22
822.62	1070.77
822.94	1070.96
823.26	1071.05
823.58	1074.82
823.90	1079.88
824.22	1082.12
824.54	1080.23
824.86	1080.67
825.18	1077.68
825.50	1077.00
825.81	1073.35
826.13	1076.01
826.45	1075.76
826.77	1079.08
827.09	1080.60
827.41	1082.87
827.73	1081.70
828.05	1084.28
828.36	1082.10
828.68	1080.46
829.00	1079.55
829.32	1076.90
829.64	1071.82
829.96	1071.22
830.28	1071.97
830.59	1072.64
830.91	1074.68
831.23	1078.96
831.55	1079.13
831.87	1079.57
832.19	1078.00
832.50	1078.12
832.82	1077.58
833.14	1075.20
833.46	1074.45
833.78	1075.94
834.09	1075.59
834.41	1073.35
834.73	1077.04
835.05	1076.13
835.36	1073.44
835.68	1074.12
836.00	1076.04
836.32	1072.13
836.63	1074.10
836.95	1077.00
837.27	1077.58
837.59	1076.90
837.90	1081.63
838.22	1077.56
838.54	1074.42
838.85	1074.45
839.17	1075.15
839.49	1071.66
839.80	1076.13
840.12	1077.65
840.44	1078.45
840.76	1078.40
841.07	1079.29
841.39	1077.93
841.71	1078.87
842.02	1073.63
842.34	1074.40
842.65	1071.54
842.97	1071.10
843.29	1069.30
843.60	1072.92
843.92	1072.74
844.24	1076.25
844.55	1075.24
844.87	1078.59
845.18	1078.07
845.50	1077.54
845.82	1075.64
846.13	1076.34
846.45	1076.55
846.76	1077.84
847.08	1075.05
847.40	1078.66
847.71	1082.50
848.03	1077.82
848.34	1076.86
848.66	1079.03
848.97	1076.93
849.29	1072.25
849.60	1075.80
849.92	1075.36
850.24	1075.80
850.55	1074.75
850.87	1073.42
851.18	1070.21
851.50	1067.73
851.81	1067.17
852.13	1063.91
852.44	1064.71
852.76	1065.79
853.07	1068.36
853.39	1067.47
853.70	1071.50
854.01	1073.25
854.33	1072.81
854.64	1076.39
854.96	1076.65
855.27	1076.23
855.59	1076.32
855.90	1076.95
856.22	1072.11
856.53	1075.34
856.84	1076.44
857.16	1077.37
857.47	1077.33
857.79	1078.31
858.10	1076.18
858.41	1076.44
858.73	1075.20
859.04	1077.16
859.36	1076.41
859.67	1073.30
859.98	1075.34
860.30	1075.78
860.61	1076.13
860.92	1079.27
861.24	1084.42
861.55	1085.26
861.87	1086.43
862.18	1085.47
862.49	1083.50
862.81	1082.61
863.12	1080.86
863.43	1078.26
863.74	1077.93
864.06	1077.75
864.37	1076.23
864.68	1073.79
865.00	1073.95
865.31	1078.61
865.62	1078.21
865.94	1077.28
866.25	1076.74
866.56	1079.57
866.87	1076.93
867.19	1077.02
867.50	1076.93
867.81	1076.13
868.12	1073.74
868.44	1070.21
868.75	1072.48
869.06	1074.89
869.37	1078.96
869.68	1077.91
870.00	1080.06
870.31	1076.93
870.62	1074.59
870.93	1073.70
871.24	1079.62
871.56	1080.77
871.87	1082.61
872.18	1086.66
872.49	1087.18
872.80	1084.63
873.12	1084.84
873.43	1086.34
873.74	1083.93
874.05	1082.26
874.36	1080.41
874.67	1081.75
874.98	1081.19
875.29	1081.07
875.61	1083.27
875.92	1083.88
876.23	1081.02
876.54	1081.14
876.85	1080.74
877.16	1082.76
877.47	1083.43
877.78	1083.69
878.09	1084.09
878.40	1084.28
878.72	1080.25
879.03	1077.35
879.34	1078.10
879.65	1075.83
879.96	1074.70
880.27	1076.11
880.58	1076.55
880.89	1076.18
881.20	1077.25
881.51	1077.82
881.82	1075.90
882.13	1079.06
882.44	1082.38
882.75	1082.64
883.06	1082.94
883.37	1083.20
883.68	1082.50
883.99	1080.18
884.30	1077.40
884.61	1077.49
884.92	1075.15
885.23	1075.05
885.54	1077.75
885.85	1080.67
886.16	1082.01
886.47	1083.43
886.78	1080.02
887.08	1075.73
887.39	1076.18
887.70	1073.79
888.01	1072.53
888.32	1072.50
888.63	1071.12
888.94	1070.07
889.25	1072.36
889.56	1080.88
889.87	1084.98
890.17	1087.34
890.48	1089.66
890.79	1087.39
891.10	1079.95
891.41	1081.70
891.72	1083.20
892.03	1083.81
892.34	1084.00
892.64	1083.29
892.95	1077.23
893.26	1073.79
893.57	1072.01
893.88	1074.03
894.18	1074.73
894.49	1076.20
894.80	1076.83
895.11	1078.87
895.42	1077.42
895.72	1079.85
896.03	1079.69
896.34	1080.04
896.65	1076.83
896.96	1076.83
897.26	1075.13
897.57	1073.72
897.88	1072.81
898.19	1073.00
898.49	1072.46
898.80	1071.82
899.11	1072.92
899.41	1075.99
899.72	1076.44
900.03	1076.18
900.34	1074.47
900.64	1076.11
900.95	1072.69
901.26	1071.17
901.56	1070.14
901.87	1070.26
902.18	1070.72
902.48	1070.72
902.79	1073.35
903.10	1074.49
903.40	1078.43
903.71	1077.63
904.02	1079.24
904.32	1078.19
904.63	1077.68
904.94	1074.82
905.24	1073.14
905.55	1073.56
905.85	1071.87
906.16	1073.86
906.47	1073.46
906.77	1074.54
907.08	1072.81
907.38	1076.69
907.69	1076.01
908.00	1077.65
908.30	1076.48
908.61	1079.01
908.91	1079.06
909.22	1077.68
909.52	1079.06
909.83	1080.27
910.14	1080.84
910.44	1079.38
910.75	1079.74
911.05	1078.96
911.36	1078.78
911.66	1078.45
911.97	1075.57
912.27	1077.37
912.58	1071.61
912.88	1071.75
913.19	1070.09
913.49	1071.36
913.80	1071.31
914.10	1075.29
914.41	1075.43
914.71	1075.10
915.01	1075.34
915.32	1072.36
915.62	1074.54
915.93	1074.40
916.23	1073.95
916.54	1074.70
916.84	1076.58
917.15	1074.61
917.45	1074.84
917.75	1072.97
918.06	1070.89
918.36	1071.68
918.67	1071.64
918.97	1071.50
919.27	1075.87
919.58	1079.34
919.88	1076.34
920.18	1076.67
920.49	1077.82
920.79	1074.61
921.10	1071.47
921.40	1075.78
921.70	1076.08
922.01	1075.41
922.31	1073.39
922.61	1072.55
922.92	1071.78
923.22	1069.81
923.52	1067.24
923.82	1069.60
924.13	1070.49
924.43	1069.48
924.73	1073.91
925.04	1075.45
925.34	1077.11
925.64	1077.72
925.94	1075.97
926.25	1074.66
926.55	1077.44
926.85	1077.44
927.15	1078.87
927.46	1080.91
927.76	1082.61
928.06	1080.79
928.36	1081.77
928.67	1080.20
928.97	1081.75
929.27	1079.48
929.57	1082.92
929.87	1081.80
930.18	1082.08
930.48	1078.19
930.78	1078.99
931.08	1076.39
931.38	1078.64
931.69	1079.27
931.99	1083.25
932.29	1081.49
932.59	1080.95
932.89	1078.47
933.19	1077.51
933.49	1074.49
933.80	1073.91
934.10	1072.15
934.40	1070.96
934.70	1073.67
935.00	1078.45
935.30	1080.34
935.60	1083.15
935.90	1082.76
936.20	1082.36
936.50	1080.25
936.81	1079.36
937.11	1079.55
937.41	1080.32
937.71	1079.90
938.01	1079.36
938.31	1080.30
938.61	1077.35
938.91	1078.54
939.21	1076.69
939.51	1076.44
939.81	1075.45
940.11	1078.75
940.41	1079.69
940.71	1081.26
941.01	1080.51
941.31	1082.64
941.61	1083.62
941.91	1082.61
942.21	1079.48
942.51	1077.37
942.81	1075.55
943.11	1070.80
943.41	1073.72
943.71	1077.91
944.01	1082.22
944.31	1083.88
944.61	1083.86
944.90	1081.26
945.20	1080.16
945.50	1080.09
945.80	1079.85
946.10	1082.12
946.40	1083.32
946.70	1081.05
947.00	1078.26
947.30	1078.85
947.60	1077.00
947.89	1074.80
948.19	1077.21
948.49	1077.30
948.79	1075.94
949.09	1078.87
949.39	1080.53
949.69	1079.53
949.98	1078.12
950.28	1077.68
950.58	1076.72
950.88	1074.19
951.18	1076.23
951.48	1079.60
951.77	1079.78
952.07	1077.49
952.37	1079.46
952.67	1075.50
952.97	1070.87
953.26	1070.72
953.56	1071.99
953.86	1070.63
954.16	1074.24
954.45	1079.48
954.75	1083.13
955.05	1084.53
955.35	1085.03
955.64	1082.76
955.94	1080.70
956.24	1077.14
956.54	1073.74
956.83	1074.54
957.13	1076.04
957.43	1074.77
957.72	1074.87
958.02	1081.68
958.32	1080.95
958.61	1080.18
958.91	1082.92
959.21	1081.98
959.50	1077.65
959.80	1079.85
960.10	1080.09
960.39	1079.62
960.69	1082.80
960.99	1085.19
961.28	1083.62
961.58	1087.27
961.87	1087.02
962.17	1084.09
962.47	1079.10
962.76	1080.46
963.06	1076.62
963.36	1078.05
963.65	1077.40
963.95	1080.27
964.24	1077.28
964.54	1076.04
964.83	1073.14
965.13	1073.53
965.42	1076.51
965.72	1076.13
966.02	1076.15
966.31	1076.95
966.61	1079.46
966.90	1077.49
967.20	1079.43
967.49	1079.78
967.79	1079.99
968.08	1077.75
968.38	1074.84
968.67	1073.86
968.97	1075.08
969.26	1075.55
969.56	1075.76
969.85	1079.01
970.15	1076.81
970.44	1076.60
970.74	1076.55
971.03	1077.51
971.32	1078.73
971.62	1080.91
971.91	1082.40
972.21	1083.74
972.50	1085.10
972.80	1083.39
973.09	1085.52
973.38	1084.89
973.68	1085.61
973.97	1082.73
974.27	1083.22
974.56	1082.76
974.85	1080.30
975.15	1078.03
975.44	1079.90
975.73	1079.15
976.03	1077.42
976.32	1078.85
976.61	1082.08
976.91	1080.86
977.20	1081.47
977.49	1080.65
977.79	1082.47
978.08	1078.87
978.37	1081.12
978.67	1082.52
978.96	1082.66
979.25	1082.40
979.55	1082.87
979.84	1082.90
980.13	1079.76
980.42	1081.63
980.72	1078.03
981.01	1074.84
981.30	1074.66
981.59	1075.59
981.89	1074.17
982.18	1077.77
982.47	1079.85
982.76	1076.48
983.06	1079.08
983.35	1079.29
983.64	1076.72
983.93	1080.77
984.22	1082.66
984.52	1082.73
984.81	1080.79
985.10	1081.42
985.39	1074.19
985.68	1074.14
985.97	1071.45
986.27	1072.41
986.56	1072.74
986.85	1077.40
987.14	1075.80
987.43	1078.00
987.72	1078.80
988.01	1078.21
988.31	1076.20
988.60	1075.50
988.89	1072.48
989.18	1071.36
989.47	1073.84
989.76	1076.39
990.05	1077.42
990.34	1075.22
990.63	1076.65
990.92	1073.93
991.21	1073.58
991.51	1073.02
991.80	1076.83
992.09	1077.02
992.38	1078.78
992.67	1075.24
992.96	1076.69
993.25	1072.55
993.54	1072.97
993.83	1073.32
994.12	1077.63
994.41	1075.50
994.70	1075.92
994.99	1075.69
995.28	1072.85
995.57	1068.95
995.86	1070.98
996.15	1074.38
996.44	1072.71
996.73	1076.18
997.02	1080.39
997.31	1079.90
997.59	1077.77
997.88	1077.54
998.17	1077.65
998.46	1074.52
998.75	1074.84
999.04	1076.06
999.33	1074.33
999.62	1072.13
999.91	1070.56
1000.20	1069.95
1000.49	1069.48
1000.77	1075.71
1001.06	1075.03
1001.35	1076.27
1001.64	1078.00
1001.93	1080.18
1002.22	1077.58
1002.51	1078.10
1002.79	1078.96
1003.08	1080.30
1003.37	1079.34
1003.66	1078.92
1003.95	1080.04
1004.23	1080.60
1004.52	1077.25
1004.81	1077.28
1005.10	1079.67
1005.39	1076.69
1005.67	1076.86
1005.96	1077.47
1006.25	1077.23
1006.54	1075.29
1006.83	1079.71
1007.11	1080.72
1007.40	1083.79
1007.69	1084.67
1007.97	1080.51
1008.26	1075.27
1008.55	1074.59
1008.84	1072.04
1009.12	1069.20
1009.41	1076.51
1009.70	1076.01
1009.98	1073.04
1010.27	1071.82
1010.56	1070.87
1010.85	1065.25
1011.13	1067.68
1011.42	1070.70
1011.71	1073.65
1011.99	1076.51
1012.28	1079.95
1012.56	1075.43
1012.85	1076.65
1013.14	1073.28
1013.42	1073.30
1013.71	1070.54
1014.00	1075.59
1014.28	1075.38
1014.57	1077.82
1014.85	1078.17
1015.14	1077.84
1015.43	1079.43
1015.71	1081.05
1016.00	1078.75
1016.28	1080.51
1016.57	1081.94
1016.85	1078.80
1017.14	1077.70
1017.43	1078.64
1017.71	1078.52
1018.00	1076.46
1018.28	1077.09
1018.57	1075.90
1018.85	1077.96
1019.14	1075.38
1019.42	1077.23
1019.71	1077.09
1019.99	1077.02
1020.28	1075.97
1020.56	1076.65
1020.85	1078.00
1021.13	1080.72
1021.42	1076.32
1021.70	1077.44
1021.99	1077.18
1022.27	1076.30
1022.55	1077.70
1022.84	1076.65
>>>>>End Processed Spectral Data<<<<<
