SpectraSuite Data File
++++++++++++++++++++++++++++++++++++
Date: Mon Aug 26 10:22:20 PDT 2019
User: corrico
Dark Spectrum Present: No
Reference Spectrum Present: No
Number of Sampled Component Spectra: 1
Spectrometers: USB2+H06089
Integration Time (usec): 2000 (USB2+H06089)
Spectra Averaged: 20 (USB2+H06089)
Boxcar Smoothing: 2 (USB2+H06089)
Correct for Electrical Dark: No (USB2+H06089)
Strobe/Lamp Enabled: No (USB2+H06089)
Correct for Detector Non-linearity: No (USB2+H06089)
Correct for Stray Light: No (USB2+H06089)
Number of Pixels in Processed Spectrum: 2048
>>>>>Begin Processed Spectral Data<<<<<
339.70	1039.78
340.07	1039.78
340.45	1002.71
340.82	977.50
341.19	951.62
341.57	924.84
341.94	912.27
342.31	902.77
342.69	899.80
343.06	897.38
343.43	895.00
343.81	896.52
344.18	900.19
344.55	903.59
344.93	907.92
345.30	912.41
345.67	918.85
346.04	927.58
346.42	934.22
346.79	940.97
347.16	954.42
347.54	966.45
347.91	974.74
348.28	985.23
348.65	996.83
349.03	1004.14
349.40	1013.94
349.77	1018.91
350.14	1022.77
350.52	1029.58
350.89	1035.57
351.26	1038.40
351.63	1046.20
352.01	1054.95
352.38	1059.40
352.75	1063.40
353.12	1066.09
353.50	1072.53
353.87	1078.96
354.24	1082.87
354.61	1086.24
354.98	1089.52
355.36	1088.19
355.73	1087.76
356.10	1086.01
356.47	1087.97
356.84	1085.52
357.22	1084.02
357.59	1083.27
357.96	1084.96
358.33	1081.68
358.70	1084.91
359.08	1085.77
359.45	1084.96
359.82	1084.93
360.19	1086.29
360.56	1081.94
360.94	1081.54
361.31	1081.12
361.68	1079.85
362.05	1078.68
362.42	1081.33
362.79	1080.41
363.16	1077.84
363.54	1077.51
363.91	1076.48
364.28	1077.35
364.65	1079.48
365.02	1079.15
365.39	1077.21
365.76	1077.56
366.14	1076.04
366.51	1073.07
366.88	1076.51
367.25	1075.64
367.62	1074.26
367.99	1071.94
368.36	1070.89
368.73	1067.96
369.10	1070.65
369.48	1074.21
369.85	1076.86
370.22	1078.54
370.59	1077.56
370.96	1077.61
371.33	1074.19
371.70	1075.43
372.07	1073.30
372.44	1076.53
372.81	1076.04
373.18	1076.81
373.55	1075.62
373.93	1079.31
374.30	1075.92
374.67	1075.41
375.04	1077.93
375.41	1075.80
375.78	1076.44
376.15	1076.97
376.52	1075.05
376.89	1073.14
377.26	1075.59
377.63	1075.94
378.00	1077.75
378.37	1079.41
378.74	1080.86
379.11	1079.99
379.48	1077.40
379.85	1081.54
380.22	1081.70
380.59	1080.41
380.96	1082.22
381.33	1084.04
381.70	1080.93
382.07	1082.94
382.44	1087.81
382.81	1085.73
383.18	1081.09
383.55	1079.97
383.92	1080.04
384.29	1076.44
384.66	1076.97
385.03	1081.77
385.40	1081.02
385.77	1079.10
386.14	1077.98
386.51	1078.45
386.88	1078.96
387.25	1080.02
387.62	1085.42
387.99	1088.40
388.36	1091.11
388.73	1092.19
389.10	1094.22
389.46	1089.00
389.83	1086.66
390.20	1086.90
390.57	1083.32
390.94	1082.47
391.31	1083.79
391.68	1085.31
392.05	1081.91
392.42	1084.37
392.79	1084.49
393.16	1085.42
393.53	1082.83
393.89	1084.70
394.26	1085.07
394.63	1084.11
395.00	1083.13
395.37	1084.09
395.74	1083.01
396.11	1082.19
396.48	1081.75
396.84	1081.37
397.21	1081.14
397.58	1084.77
397.95	1085.12
398.32	1086.55
398.69	1090.06
399.06	1092.12
399.42	1090.17
399.79	1090.24
400.16	1091.06
400.53	1089.24
400.90	1088.16
401.27	1087.74
401.64	1091.42
402.00	1089.85
402.37	1090.39
402.74	1096.56
403.11	1098.32
403.48	1092.82
403.84	1095.18
404.21	1095.89
404.58	1090.06
404.95	1090.92
405.32	1093.94
405.68	1094.43
406.05	1095.67
406.42	1095.77
406.79	1091.88
407.16	1090.90
407.52	1088.28
407.89	1086.29
408.26	1090.32
408.63	1093.55
408.99	1093.62
409.36	1096.05
409.73	1098.04
410.10	1096.10
410.47	1097.22
410.83	1098.86
411.20	1096.61
411.57	1096.61
411.94	1095.11
412.30	1095.93
412.67	1096.05
413.04	1095.21
413.40	1095.53
413.77	1097.80
414.14	1097.76
414.51	1097.80
414.87	1098.69
415.24	1097.13
415.61	1095.75
415.97	1093.73
416.34	1095.51
416.71	1097.34
417.08	1100.17
417.44	1102.44
417.81	1108.36
418.18	1108.06
418.54	1109.62
418.91	1111.40
419.28	1111.43
419.64	1108.45
420.01	1107.96
420.38	1110.72
420.74	1107.33
421.11	1110.84
421.48	1117.47
421.84	1120.11
422.21	1123.34
422.58	1126.97
422.94	1128.02
423.31	1124.74
423.68	1127.72
424.04	1128.77
424.41	1136.49
424.77	1140.22
425.14	1146.44
425.51	1150.47
425.87	1155.22
426.24	1158.19
426.61	1162.82
426.97	1165.10
427.34	1172.75
427.70	1178.65
428.07	1179.93
428.44	1184.76
428.80	1193.23
429.17	1197.84
429.53	1207.44
429.90	1222.27
430.27	1233.25
430.63	1242.40
431.00	1254.60
431.36	1264.57
431.73	1272.39
432.09	1284.88
432.46	1298.93
432.83	1317.25
433.19	1332.56
433.56	1352.62
433.92	1372.93
434.29	1392.81
434.65	1412.33
435.02	1434.87
435.38	1459.28
435.75	1483.17
436.11	1515.19
436.48	1545.50
436.84	1580.31
437.21	1618.57
437.57	1659.37
437.94	1698.85
438.30	1746.23
438.67	1792.83
439.03	1842.47
439.40	1894.57
439.76	1951.40
440.13	2006.17
440.49	2069.62
440.86	2131.85
441.22	2201.62
441.59	2274.81
441.95	2357.95
442.32	2437.71
442.68	2530.61
443.05	2626.83
443.41	2721.72
443.78	2819.67
444.14	2934.80
444.51	3047.12
444.87	3179.45
445.24	3320.24
445.60	3475.25
445.96	3620.90
446.33	3789.96
446.69	3953.63
447.06	4130.72
447.42	4304.48
447.79	4503.47
448.15	4725.75
448.51	4949.20
448.88	5206.50
449.24	5454.97
449.61	5728.60
449.97	5990.34
450.33	6272.52
450.70	6530.63
451.06	6850.89
451.43	7157.85
451.79	7524.00
452.15	7921.33
452.52	8362.59
452.88	8832.55
453.24	9354.44
453.61	9921.20
453.97	10482.98
454.34	11027.76
454.70	11653.22
455.06	12292.47
455.43	12914.19
455.79	13494.94
456.15	14197.99
456.52	14866.50
456.88	15628.83
457.24	16340.03
457.61	17191.05
457.97	17961.83
458.33	18734.75
458.70	19484.37
459.06	20256.33
459.42	21090.43
459.79	21862.48
460.15	22737.13
460.51	23595.62
460.88	24505.08
461.24	25284.43
461.60	26239.30
461.96	27104.46
462.33	27939.42
462.69	28732.09
463.05	29603.94
463.42	30343.59
463.78	31013.46
464.14	31551.76
464.50	32140.31
464.87	32579.60
465.23	32919.52
465.59	33261.96
465.95	33593.80
466.32	33862.61
466.68	34124.47
467.04	34279.60
467.40	34428.04
467.77	34600.72
468.13	34590.54
468.49	34490.04
468.85	34427.57
469.22	34264.97
469.58	33917.97
469.94	33690.16
470.30	33402.70
470.66	32999.77
471.03	32414.10
471.39	32024.66
471.75	31395.08
472.11	30808.71
472.47	30463.83
472.84	30164.82
473.20	29688.74
473.56	29419.22
473.92	28994.77
474.28	28450.43
474.65	27965.49
475.01	27505.44
475.37	26938.89
475.73	26480.00
476.09	25983.88
476.45	25474.81
476.81	24961.30
477.18	24437.95
477.54	23997.56
477.90	23624.57
478.26	23205.33
478.62	22869.47
478.98	22574.09
479.34	22259.57
479.71	21843.24
480.07	21481.32
480.43	21103.44
480.79	20702.81
481.15	20323.95
481.51	19998.92
481.87	19745.98
482.23	19471.99
482.59	19207.28
482.96	18936.36
483.32	18667.13
483.68	18299.83
484.04	17941.12
484.40	17594.13
484.76	17226.60
485.12	16855.56
485.48	16540.31
485.84	16199.13
486.20	15842.34
486.56	15485.92
486.92	15168.66
487.28	14823.31
487.64	14479.61
488.00	14164.36
488.37	13834.56
488.73	13469.81
489.09	13108.29
489.45	12790.75
489.81	12472.29
490.17	12172.00
490.53	11909.72
490.89	11617.30
491.25	11307.46
491.61	10996.70
491.97	10690.49
492.33	10346.90
492.69	10046.89
493.05	9752.36
493.41	9463.37
493.77	9185.03
494.13	8937.59
494.49	8684.42
494.85	8438.50
495.21	8208.98
495.57	7983.19
495.93	7769.62
496.29	7559.65
496.64	7379.52
497.00	7188.02
497.36	6999.09
497.72	6807.21
498.08	6639.56
498.44	6451.52
498.80	6274.77
499.16	6116.17
499.52	5958.54
499.88	5819.13
500.24	5693.45
500.60	5575.18
500.96	5457.71
501.32	5347.21
501.68	5227.14
502.03	5103.19
502.39	4974.74
502.75	4836.16
503.11	4703.61
503.47	4582.49
503.83	4461.58
504.19	4342.56
504.55	4236.39
504.91	4151.85
505.26	4057.55
505.62	3977.32
505.98	3898.91
506.34	3815.47
506.70	3717.89
507.06	3628.06
507.42	3545.16
507.78	3464.60
508.13	3380.74
508.49	3306.10
508.85	3238.06
509.21	3168.13
509.57	3098.21
509.93	3038.34
510.28	2969.53
510.64	2902.03
511.00	2830.76
511.36	2767.54
511.72	2711.28
512.07	2659.27
512.43	2610.05
512.79	2555.42
513.15	2510.95
513.51	2459.55
513.86	2416.58
514.22	2374.10
514.58	2340.56
514.94	2303.25
515.30	2274.16
515.65	2236.48
516.01	2207.24
516.37	2176.21
516.73	2145.94
517.08	2116.29
517.44	2087.57
517.80	2056.32
518.16	2026.60
518.51	1996.31
518.87	1960.71
519.23	1939.20
519.59	1909.10
519.94	1883.31
520.30	1861.62
520.66	1839.15
521.01	1812.32
521.37	1794.40
521.73	1774.97
522.09	1756.13
522.44	1737.12
522.80	1715.10
523.16	1693.75
523.51	1672.92
523.87	1647.88
524.23	1631.00
524.58	1615.72
524.94	1599.64
525.30	1583.77
525.65	1571.11
526.01	1554.30
526.37	1538.11
526.72	1519.73
527.08	1508.97
527.44	1496.19
527.79	1484.70
528.15	1469.06
528.51	1457.26
528.86	1441.75
529.22	1428.03
529.58	1418.79
529.93	1413.12
530.29	1405.89
530.65	1398.03
531.00	1390.18
531.36	1377.99
531.71	1362.78
532.07	1352.88
532.43	1346.93
532.78	1339.25
533.14	1331.95
533.49	1331.32
533.85	1324.84
534.21	1313.13
534.56	1308.34
534.92	1302.51
535.27	1294.55
535.63	1289.45
535.98	1286.38
536.34	1278.85
536.69	1274.02
537.05	1269.44
537.41	1260.87
537.76	1254.64
538.12	1251.16
538.47	1245.73
538.83	1238.85
539.18	1234.26
539.54	1229.06
539.89	1220.92
540.25	1214.48
540.60	1211.65
540.96	1210.97
541.31	1209.31
541.67	1213.10
542.02	1211.23
542.38	1208.09
542.73	1202.61
543.09	1197.09
543.44	1189.81
543.80	1186.91
544.15	1183.80
544.51	1184.33
544.86	1184.05
545.22	1180.92
545.57	1180.96
545.93	1182.13
546.28	1178.60
546.64	1172.82
546.99	1168.84
547.35	1162.52
547.70	1153.56
548.05	1148.03
548.41	1143.96
548.76	1142.70
549.12	1140.22
549.47	1142.30
549.83	1143.09
550.18	1144.31
550.53	1143.42
550.89	1142.72
551.24	1142.67
551.60	1143.33
551.95	1142.49
552.30	1140.36
552.66	1140.33
553.01	1138.25
553.37	1135.84
553.72	1133.78
554.07	1133.54
554.43	1135.49
554.78	1135.35
555.13	1135.30
555.49	1137.01
555.84	1136.28
556.19	1131.09
556.55	1127.16
556.90	1123.55
557.26	1124.49
557.61	1124.51
557.96	1121.40
558.32	1121.00
558.67	1119.76
559.02	1118.92
559.37	1119.41
559.73	1122.64
560.08	1123.64
560.43	1124.16
560.79	1119.06
561.14	1114.54
561.49	1111.73
561.85	1108.03
562.20	1107.21
562.55	1107.12
562.90	1105.95
563.26	1105.18
563.61	1105.76
563.96	1102.77
564.32	1102.11
564.67	1102.79
565.02	1104.97
565.37	1103.28
565.73	1103.63
566.08	1102.67
566.43	1102.58
566.78	1100.00
567.14	1099.26
567.49	1099.75
567.84	1100.03
568.19	1096.28
568.54	1097.13
568.90	1098.65
569.25	1099.16
569.60	1097.88
569.95	1100.15
570.31	1098.27
570.66	1097.52
571.01	1095.39
571.36	1095.11
571.71	1093.97
572.06	1094.18
572.42	1095.75
572.77	1099.98
573.12	1100.29
573.47	1102.77
573.82	1104.55
574.18	1101.92
574.53	1099.54
574.88	1099.40
575.23	1097.41
575.58	1097.03
575.93	1098.62
576.28	1094.55
576.64	1094.27
576.99	1093.94
577.34	1091.74
577.69	1089.12
578.04	1094.41
578.39	1097.36
578.74	1100.17
579.09	1101.95
579.44	1102.04
579.80	1100.47
580.15	1095.42
580.50	1090.90
580.85	1087.69
581.20	1091.60
581.55	1090.10
581.90	1090.81
582.25	1093.43
582.60	1093.10
582.95	1087.48
583.30	1088.77
583.65	1084.84
584.00	1083.57
584.35	1082.64
584.71	1083.64
585.06	1082.12
585.41	1085.70
585.76	1083.60
586.11	1081.63
586.46	1083.11
586.81	1083.27
587.16	1087.79
587.51	1091.06
587.86	1095.18
588.21	1093.90
588.56	1091.56
588.91	1088.70
589.26	1087.79
589.61	1090.85
589.96	1093.24
590.31	1096.26
590.66	1093.24
591.01	1090.64
591.36	1086.10
591.71	1085.05
592.06	1085.24
592.41	1087.67
592.76	1088.86
593.10	1089.24
593.45	1089.14
593.80	1088.63
594.15	1089.31
594.50	1091.84
594.85	1091.77
595.20	1089.73
595.55	1087.83
595.90	1085.07
596.25	1084.11
596.60	1084.39
596.95	1086.17
597.30	1085.05
597.64	1096.89
597.99	1096.42
598.34	1096.94
598.69	1093.99
599.04	1094.18
599.39	1086.62
599.74	1081.58
600.09	1081.94
600.44	1084.30
600.78	1086.62
601.13	1080.77
601.48	1083.48
601.83	1083.93
602.18	1082.90
602.53	1083.34
602.88	1085.82
603.22	1083.04
603.57	1082.10
603.92	1083.95
604.27	1083.90
604.62	1080.67
604.97	1084.35
605.31	1083.18
605.66	1080.74
606.01	1078.24
606.36	1082.85
606.71	1082.29
607.05	1081.54
607.40	1082.19
607.75	1086.29
608.10	1085.03
608.44	1085.99
608.79	1089.71
609.14	1089.99
609.49	1084.51
609.84	1083.53
610.18	1082.36
610.53	1081.09
610.88	1082.94
611.23	1084.32
611.57	1085.03
611.92	1086.94
612.27	1086.20
612.62	1085.00
612.96	1086.17
613.31	1085.84
613.66	1085.77
614.00	1085.89
614.35	1085.68
614.70	1085.73
615.05	1082.54
615.39	1079.48
615.74	1078.24
616.09	1076.74
616.43	1077.04
616.78	1082.12
617.13	1085.61
617.47	1087.76
617.82	1090.10
618.17	1089.31
618.51	1088.28
618.86	1084.11
619.21	1081.63
619.55	1079.81
619.90	1081.00
620.25	1082.80
620.59	1085.21
620.94	1085.96
621.29	1087.09
621.63	1085.87
621.98	1083.64
622.32	1085.35
622.67	1082.99
623.02	1081.91
623.36	1081.70
623.71	1080.88
624.05	1079.03
624.40	1082.64
624.75	1081.89
625.09	1084.09
625.44	1083.76
625.78	1084.23
626.13	1082.85
626.48	1083.74
626.82	1081.33
627.17	1081.44
627.51	1081.98
627.86	1082.19
628.20	1085.68
628.55	1083.76
628.89	1084.09
629.24	1082.45
629.58	1083.11
629.93	1080.32
630.28	1081.49
630.62	1082.05
630.97	1087.09
631.31	1087.23
631.66	1088.44
632.00	1091.67
632.35	1090.69
632.69	1085.89
633.04	1084.91
633.38	1083.83
633.73	1081.07
634.07	1083.86
634.42	1087.04
634.76	1087.23
635.11	1088.16
635.45	1087.18
635.79	1085.28
636.14	1080.72
636.48	1081.94
636.83	1079.76
637.17	1077.18
637.52	1077.61
637.86	1077.47
638.21	1075.05
638.55	1073.81
638.89	1079.22
639.24	1078.45
639.58	1084.11
639.93	1085.52
640.27	1089.73
640.61	1085.94
640.96	1083.79
641.30	1080.09
641.65	1079.08
641.99	1075.69
642.33	1080.58
642.68	1084.16
643.02	1086.31
643.37	1089.12
643.71	1090.43
644.05	1089.31
644.40	1086.45
644.74	1085.54
645.08	1084.65
645.43	1086.62
645.77	1087.55
646.11	1091.46
646.46	1091.39
646.80	1090.29
647.14	1089.12
647.49	1085.99
647.83	1083.08
648.17	1084.53
648.52	1085.24
648.86	1082.47
649.20	1084.60
649.55	1083.90
649.89	1080.25
650.23	1079.71
650.57	1079.67
650.92	1079.27
651.26	1081.40
651.60	1081.37
651.95	1081.09
652.29	1083.25
652.63	1084.02
652.97	1081.12
653.32	1079.74
653.66	1081.07
654.00	1078.05
654.34	1075.03
654.69	1075.48
655.03	1078.43
655.37	1079.34
655.71	1083.13
656.05	1087.90
656.40	1090.34
656.74	1092.61
657.08	1087.74
657.42	1088.77
657.76	1085.56
658.11	1080.88
658.45	1078.85
658.79	1082.22
659.13	1078.50
659.47	1077.56
659.82	1082.08
660.16	1080.53
660.50	1080.72
660.84	1080.46
661.18	1079.99
661.52	1078.28
661.87	1078.66
662.21	1077.54
662.55	1076.55
662.89	1076.76
663.23	1078.71
663.57	1082.05
663.91	1081.37
664.25	1084.67
664.60	1089.89
664.94	1088.23
665.28	1085.35
665.62	1085.73
665.96	1086.99
666.30	1085.82
666.64	1086.01
666.98	1085.05
667.32	1086.29
667.66	1084.84
668.01	1082.83
668.35	1086.38
668.69	1088.33
669.03	1088.28
669.37	1085.54
669.71	1083.97
670.05	1079.62
670.39	1082.52
670.73	1086.48
671.07	1091.11
671.41	1091.95
671.75	1092.16
672.09	1086.85
672.43	1082.26
672.77	1080.09
673.11	1078.71
673.45	1076.55
673.79	1077.07
674.13	1079.15
674.47	1079.99
674.81	1077.82
675.15	1081.70
675.49	1082.05
675.83	1079.20
676.17	1079.92
676.51	1084.93
676.85	1084.35
677.19	1086.90
677.53	1089.03
677.87	1089.64
678.21	1088.77
678.55	1090.10
678.89	1089.92
679.23	1090.81
679.57	1087.72
679.90	1085.75
680.24	1083.06
680.58	1082.08
680.92	1081.05
681.26	1082.45
681.60	1083.55
681.94	1084.39
682.28	1084.23
682.62	1084.56
682.96	1085.38
683.29	1084.49
683.63	1082.08
683.97	1080.58
684.31	1081.26
684.65	1079.06
684.99	1074.98
685.33	1077.37
685.67	1079.88
686.00	1075.69
686.34	1072.74
686.68	1077.21
687.02	1079.15
687.36	1075.22
687.70	1074.91
688.03	1077.96
688.37	1075.29
688.71	1075.97
689.05	1073.77
689.39	1078.21
689.72	1078.33
690.06	1080.30
690.40	1082.85
690.74	1087.37
691.08	1087.02
691.41	1086.31
691.75	1086.92
692.09	1081.94
692.43	1082.19
692.76	1076.13
693.10	1078.52
693.44	1080.37
693.78	1078.12
694.11	1077.51
694.45	1081.70
694.79	1079.46
695.13	1078.14
695.46	1079.74
695.80	1080.88
696.14	1078.66
696.48	1078.54
696.81	1078.87
697.15	1078.82
697.49	1078.99
697.82	1081.26
698.16	1082.71
698.50	1080.67
698.83	1084.49
699.17	1082.40
699.51	1083.36
699.84	1084.60
700.18	1086.03
700.52	1084.16
700.85	1084.09
701.19	1079.78
701.53	1079.17
701.86	1075.76
702.20	1074.68
702.54	1075.13
702.87	1078.03
703.21	1078.38
703.55	1080.27
703.88	1078.71
704.22	1077.82
704.55	1077.07
704.89	1077.96
705.23	1079.67
705.56	1078.50
705.90	1078.64
706.23	1076.65
706.57	1074.05
706.91	1071.94
707.24	1074.42
707.58	1073.14
707.91	1077.40
708.25	1077.40
708.58	1079.01
708.92	1078.87
709.26	1081.63
709.59	1078.26
709.93	1076.86
710.26	1076.79
710.60	1077.77
710.93	1077.02
711.27	1078.26
711.60	1082.03
711.94	1078.87
712.27	1078.38
712.61	1077.23
712.94	1079.22
713.28	1077.91
713.61	1079.97
713.95	1078.47
714.28	1079.31
714.62	1075.34
714.95	1071.59
715.29	1072.92
715.62	1073.86
715.96	1077.68
716.29	1078.75
716.63	1079.46
716.96	1079.27
717.29	1079.22
717.63	1076.51
717.96	1077.77
718.30	1080.37
718.63	1079.90
718.97	1079.97
719.30	1078.61
719.63	1081.82
719.97	1082.05
720.30	1082.78
720.64	1080.77
720.97	1081.77
721.30	1080.65
721.64	1081.28
721.97	1080.16
722.31	1082.22
722.64	1083.55
722.97	1082.08
723.31	1082.66
723.64	1082.05
723.97	1079.38
724.31	1079.27
724.64	1078.31
724.98	1076.46
725.31	1077.58
725.64	1079.10
725.98	1079.74
726.31	1080.02
726.64	1078.99
726.97	1079.17
727.31	1079.85
727.64	1079.01
727.97	1081.00
728.31	1082.80
728.64	1084.63
728.97	1086.17
729.31	1084.00
729.64	1082.05
729.97	1080.46
730.30	1079.46
730.64	1079.08
730.97	1078.54
731.30	1078.03
731.63	1078.21
731.97	1077.16
732.30	1076.79
732.63	1082.80
732.96	1083.50
733.30	1085.54
733.63	1086.15
733.96	1087.86
734.29	1082.90
734.63	1079.43
734.96	1077.02
735.29	1075.83
735.62	1075.62
735.95	1076.67
736.29	1081.91
736.62	1080.13
736.95	1084.25
737.28	1083.29
737.61	1082.61
737.94	1080.95
738.28	1084.67
738.61	1083.79
738.94	1082.85
739.27	1081.26
739.60	1081.47
739.93	1079.27
740.27	1078.03
740.60	1078.28
740.93	1077.65
741.26	1081.07
741.59	1082.50
741.92	1081.56
742.25	1081.33
742.58	1082.10
742.91	1078.17
743.25	1074.89
743.58	1074.56
743.91	1074.03
744.24	1075.17
744.57	1075.85
744.90	1078.47
745.23	1078.82
745.56	1080.32
745.89	1077.21
746.22	1075.59
746.55	1078.03
746.88	1079.10
747.21	1076.46
747.54	1080.32
747.87	1081.94
748.20	1079.48
748.53	1079.69
748.87	1082.38
749.20	1082.12
749.53	1079.29
749.86	1080.56
750.19	1079.17
750.52	1076.37
750.85	1075.50
751.18	1077.35
751.51	1076.95
751.84	1076.58
752.16	1080.06
752.49	1080.93
752.82	1082.10
753.15	1081.02
753.48	1081.94
753.81	1079.55
754.14	1082.24
754.47	1081.00
754.80	1081.54
755.13	1078.99
755.46	1079.15
755.79	1076.32
756.12	1077.79
756.45	1080.27
756.78	1079.36
757.11	1081.58
757.43	1080.74
757.76	1082.05
758.09	1078.31
758.42	1077.04
758.75	1073.95
759.08	1076.34
759.41	1070.21
759.74	1072.25
760.07	1073.93
760.39	1076.27
760.72	1073.35
761.05	1079.03
761.38	1078.87
761.71	1080.48
762.04	1077.89
762.36	1077.58
762.69	1074.28
763.02	1072.53
763.35	1073.23
763.68	1074.89
764.01	1075.50
764.33	1074.91
764.66	1075.83
764.99	1075.31
765.32	1073.65
765.65	1076.39
765.97	1077.96
766.30	1078.21
766.63	1076.83
766.96	1075.66
767.28	1073.91
767.61	1074.31
767.94	1072.39
768.27	1072.29
768.59	1074.24
768.92	1074.68
769.25	1074.28
769.58	1077.04
769.90	1078.12
770.23	1079.78
770.56	1079.76
770.89	1079.74
771.21	1076.01
771.54	1077.51
771.87	1077.61
772.19	1076.37
772.52	1077.11
772.85	1080.53
773.17	1078.47
773.50	1076.51
773.83	1075.52
774.15	1076.30
774.48	1076.53
774.81	1079.53
775.13	1079.36
775.46	1079.92
775.79	1082.03
776.11	1083.20
776.44	1080.51
776.77	1081.28
777.09	1084.63
777.42	1083.76
777.74	1081.49
778.07	1081.63
778.40	1082.12
778.72	1080.13
779.05	1078.05
779.37	1075.62
779.70	1075.99
780.03	1075.03
780.35	1072.32
780.68	1071.85
781.00	1073.25
781.33	1073.70
781.65	1076.51
781.98	1080.56
782.31	1078.85
782.63	1080.88
782.96	1081.21
783.28	1076.04
783.61	1071.94
783.93	1071.61
784.26	1073.51
784.58	1072.55
784.91	1076.60
785.23	1078.45
785.56	1081.44
785.88	1077.84
786.21	1079.48
786.53	1077.42
786.86	1078.40
787.18	1076.41
787.51	1078.21
787.83	1078.80
788.16	1081.26
788.48	1080.58
788.81	1081.51
789.13	1081.05
789.46	1079.50
789.78	1079.97
790.10	1082.31
790.43	1084.37
790.75	1083.93
791.08	1082.38
791.40	1080.70
791.73	1078.99
792.05	1075.90
792.37	1080.65
792.70	1082.24
793.02	1080.13
793.35	1078.03
793.67	1078.99
793.99	1076.55
794.32	1076.81
794.64	1076.86
794.96	1077.93
795.29	1075.52
795.61	1075.15
795.93	1074.14
796.26	1075.87
796.58	1077.58
796.91	1079.69
797.23	1079.24
797.55	1081.54
797.87	1082.50
798.20	1083.15
798.52	1085.61
798.84	1083.95
799.17	1080.51
799.49	1080.86
799.81	1080.79
800.14	1080.56
800.46	1081.44
800.78	1083.20
801.10	1080.81
801.43	1081.19
801.75	1079.20
802.07	1078.43
802.40	1078.47
802.72	1077.89
803.04	1077.02
803.36	1080.02
803.69	1082.33
804.01	1085.77
804.33	1089.82
804.65	1085.87
804.97	1084.39
805.30	1082.59
805.62	1078.87
805.94	1075.85
806.26	1076.48
806.58	1074.12
806.91	1071.75
807.23	1070.70
807.55	1071.59
807.87	1074.28
808.19	1077.21
808.52	1079.74
808.84	1081.23
809.16	1081.00
809.48	1080.39
809.80	1081.47
810.12	1080.25
810.44	1078.68
810.77	1078.33
811.09	1078.57
811.41	1074.84
811.73	1075.52
812.05	1077.42
812.37	1076.90
812.69	1075.52
813.01	1074.10
813.33	1073.72
813.66	1074.54
813.98	1076.11
814.30	1075.31
814.62	1075.76
814.94	1079.17
815.26	1077.79
815.58	1078.19
815.90	1081.19
816.22	1083.86
816.54	1079.78
816.86	1081.35
817.18	1081.33
817.50	1079.99
817.82	1079.76
818.14	1080.67
818.46	1079.92
818.78	1077.65
819.10	1077.75
819.42	1076.13
819.74	1076.34
820.06	1072.13
820.38	1071.01
820.70	1070.80
821.02	1071.10
821.34	1069.27
821.66	1073.72
821.98	1076.08
822.30	1074.40
822.62	1077.02
822.94	1075.87
823.26	1074.42
823.58	1074.07
823.90	1075.78
824.22	1074.10
824.54	1077.61
824.86	1080.44
825.18	1083.15
825.50	1083.90
825.81	1084.56
826.13	1082.90
826.45	1081.19
826.77	1074.77
827.09	1074.68
827.41	1072.90
827.73	1072.04
828.05	1069.62
828.36	1073.79
828.68	1072.08
829.00	1070.72
829.32	1073.39
829.64	1075.83
829.96	1079.22
830.28	1083.11
830.59	1084.00
830.91	1084.44
831.23	1081.02
831.55	1073.95
831.87	1069.06
832.19	1071.01
832.50	1068.01
832.82	1071.08
833.14	1074.61
833.46	1078.59
833.78	1077.35
834.09	1081.12
834.41	1078.61
834.73	1078.75
835.05	1079.55
835.36	1079.46
835.68	1076.60
836.00	1079.53
836.32	1076.58
836.63	1076.51
836.95	1079.41
837.27	1081.56
837.59	1082.69
837.90	1085.03
838.22	1084.00
838.54	1081.35
838.85	1076.95
839.17	1074.59
839.49	1074.82
839.80	1074.28
840.12	1074.26
840.44	1077.82
840.76	1078.38
841.07	1079.55
841.39	1080.06
841.71	1081.21
842.02	1078.00
842.34	1078.14
842.65	1075.80
842.97	1075.87
843.29	1077.82
843.60	1078.54
843.92	1076.93
844.24	1078.73
844.55	1079.38
844.87	1073.07
845.18	1074.59
845.50	1076.95
845.82	1076.86
846.13	1074.54
846.45	1077.86
846.76	1077.35
847.08	1076.20
847.40	1074.96
847.71	1075.50
848.03	1075.13
848.34	1077.11
848.66	1078.71
848.97	1079.08
849.29	1077.86
849.60	1078.07
849.92	1075.97
850.24	1075.45
850.55	1076.90
850.87	1078.52
851.18	1078.59
851.50	1081.05
851.81	1079.29
852.13	1078.82
852.44	1082.61
852.76	1085.89
853.07	1083.79
853.39	1083.67
853.70	1085.63
854.01	1084.02
854.33	1082.10
854.64	1081.80
854.96	1082.19
855.27	1080.39
855.59	1080.53
855.90	1081.87
856.22	1082.64
856.53	1083.01
856.84	1079.01
857.16	1076.62
857.47	1078.54
857.79	1078.61
858.10	1081.00
858.41	1086.03
858.73	1085.91
859.04	1083.90
859.36	1080.60
859.67	1077.09
859.98	1074.19
860.30	1074.61
860.61	1071.36
860.92	1073.95
861.24	1076.67
861.55	1081.40
861.87	1083.04
862.18	1082.80
862.49	1084.14
862.81	1084.21
863.12	1081.26
863.43	1076.39
863.74	1078.92
864.06	1079.76
864.37	1079.97
864.68	1077.51
865.00	1080.84
865.31	1078.05
865.62	1077.00
865.94	1073.81
866.25	1075.08
866.56	1071.92
866.87	1074.70
867.19	1074.87
867.50	1079.69
867.81	1079.69
868.12	1080.93
868.44	1080.84
868.75	1079.57
869.06	1077.72
869.37	1077.14
869.68	1077.49
870.00	1075.27
870.31	1076.60
870.62	1078.82
870.93	1080.16
871.24	1081.61
871.56	1081.89
871.87	1081.89
872.18	1075.29
872.49	1076.18
872.80	1075.73
873.12	1077.33
873.43	1076.90
873.74	1081.82
874.05	1083.39
874.36	1081.42
874.67	1082.22
874.98	1085.35
875.29	1083.22
875.61	1079.41
875.92	1081.51
876.23	1079.41
876.54	1075.62
876.85	1077.40
877.16	1078.07
877.47	1078.12
877.78	1078.36
878.09	1077.65
878.40	1074.84
878.72	1075.03
879.03	1072.85
879.34	1073.42
879.65	1072.20
879.96	1073.30
880.27	1074.33
880.58	1075.85
880.89	1076.18
881.20	1077.23
881.51	1078.10
881.82	1074.80
882.13	1074.40
882.44	1074.05
882.75	1074.00
883.06	1073.60
883.37	1076.25
883.68	1076.20
883.99	1077.07
884.30	1075.85
884.61	1072.36
884.92	1074.12
885.23	1072.15
885.54	1069.67
885.85	1072.48
886.16	1074.94
886.47	1074.03
886.78	1077.65
887.08	1079.24
887.39	1079.95
887.70	1079.53
888.01	1077.25
888.32	1075.69
888.63	1076.60
888.94	1077.44
889.25	1076.65
889.56	1080.30
889.87	1081.89
890.17	1080.72
890.48	1079.57
890.79	1079.27
891.10	1076.39
891.41	1073.63
891.72	1075.24
892.03	1072.76
892.34	1077.42
892.64	1079.62
892.95	1079.95
893.26	1078.10
893.57	1078.87
893.88	1076.51
894.18	1074.31
894.49	1075.80
894.80	1074.28
895.11	1073.09
895.42	1071.19
895.72	1071.82
896.03	1074.61
896.34	1077.68
896.65	1080.77
896.96	1082.52
897.26	1083.41
897.57	1078.99
897.88	1077.98
898.19	1075.62
898.49	1079.62
898.80	1078.71
899.11	1078.61
899.41	1078.52
899.72	1080.39
900.03	1077.21
900.34	1077.68
900.64	1078.59
900.95	1077.96
901.26	1074.63
901.56	1074.12
901.87	1072.57
902.18	1074.26
902.48	1074.42
902.79	1078.28
903.10	1078.64
903.40	1081.16
903.71	1081.16
904.02	1080.91
904.32	1082.31
904.63	1081.68
904.94	1080.34
905.24	1078.85
905.55	1077.84
905.85	1074.07
906.16	1074.77
906.47	1076.15
906.77	1079.06
907.08	1080.04
907.38	1083.13
907.69	1082.50
908.00	1080.51
908.30	1079.76
908.61	1078.43
908.91	1075.50
909.22	1079.36
909.52	1079.41
909.83	1077.16
910.14	1080.63
910.44	1080.13
910.75	1075.80
911.05	1076.41
911.36	1079.90
911.66	1080.53
911.97	1083.53
912.27	1086.15
912.58	1084.67
912.88	1082.40
913.19	1077.84
913.49	1076.55
913.80	1073.65
914.10	1077.96
914.41	1077.47
914.71	1081.26
915.01	1080.98
915.32	1080.27
915.62	1077.86
915.93	1076.20
916.23	1076.06
916.54	1076.55
916.84	1076.67
917.15	1076.67
917.45	1077.09
917.75	1076.25
918.06	1077.79
918.36	1078.36
918.67	1076.97
918.97	1078.17
919.27	1076.65
919.58	1075.15
919.88	1076.81
920.18	1075.24
920.49	1076.60
920.79	1076.41
921.10	1073.49
921.40	1074.68
921.70	1076.97
922.01	1076.62
922.31	1077.75
922.61	1079.67
922.92	1077.75
923.22	1078.03
923.52	1079.92
923.82	1080.91
924.13	1079.69
924.43	1081.82
924.73	1078.78
925.04	1075.76
925.34	1077.91
925.64	1081.05
925.94	1077.56
926.25	1079.17
926.55	1076.48
926.85	1070.56
927.15	1068.10
927.46	1066.72
927.76	1067.99
928.06	1072.71
928.36	1076.81
928.67	1077.79
928.97	1080.37
929.27	1078.75
929.57	1077.54
929.87	1073.79
930.18	1075.97
930.48	1074.96
930.78	1075.62
931.08	1074.49
931.38	1076.39
931.69	1076.46
931.99	1079.62
932.29	1079.60
932.59	1080.67
932.89	1081.00
933.19	1078.10
933.49	1071.05
933.80	1071.82
934.10	1072.62
934.40	1073.44
934.70	1075.80
935.00	1081.84
935.30	1081.16
935.60	1078.73
935.90	1077.79
936.20	1077.02
936.50	1074.70
936.81	1074.61
937.11	1078.94
937.41	1080.88
937.71	1079.71
938.01	1078.59
938.31	1079.43
938.61	1075.59
938.91	1078.05
939.21	1081.21
939.51	1084.53
939.81	1084.32
940.11	1085.59
940.41	1079.69
940.71	1079.03
941.01	1078.07
941.31	1076.55
941.61	1079.97
941.91	1081.07
942.21	1077.65
942.51	1074.75
942.81	1073.77
943.11	1069.13
943.41	1071.90
943.71	1071.87
944.01	1073.16
944.31	1073.67
944.61	1074.10
944.90	1072.27
945.20	1073.30
945.50	1074.54
945.80	1075.45
946.10	1075.76
946.40	1076.11
946.70	1074.75
947.00	1071.68
947.30	1075.55
947.60	1075.69
947.89	1071.80
948.19	1072.92
948.49	1076.06
948.79	1073.42
949.09	1074.56
949.39	1079.83
949.69	1079.64
949.98	1080.51
950.28	1077.00
950.58	1074.17
950.88	1071.66
951.18	1071.66
951.48	1070.30
951.77	1074.54
952.07	1076.39
952.37	1077.68
952.67	1078.68
952.97	1079.99
953.26	1077.37
953.56	1074.47
953.86	1074.54
954.16	1073.72
954.45	1072.53
954.75	1074.12
955.05	1078.07
955.35	1077.40
955.64	1075.36
955.94	1074.38
956.24	1073.70
956.54	1070.05
956.83	1069.95
957.13	1072.74
957.43	1074.17
957.72	1072.46
958.02	1078.61
958.32	1079.53
958.61	1076.25
958.91	1076.67
959.21	1078.28
959.50	1075.52
959.80	1076.23
960.10	1079.17
960.39	1080.51
960.69	1080.44
960.99	1077.49
961.28	1075.62
961.58	1077.49
961.87	1076.51
962.17	1077.33
962.47	1077.47
962.76	1075.15
963.06	1071.26
963.36	1072.71
963.65	1074.03
963.95	1075.13
964.24	1078.71
964.54	1079.08
964.83	1074.33
965.13	1073.11
965.42	1073.72
965.72	1072.83
966.02	1075.24
966.31	1074.84
966.61	1074.17
966.90	1072.55
967.20	1073.77
967.49	1072.48
967.79	1072.78
968.08	1073.18
968.38	1076.18
968.67	1073.30
968.97	1072.55
969.26	1076.11
969.56	1077.89
969.85	1076.46
970.15	1077.82
970.44	1080.48
970.74	1080.84
971.03	1081.58
971.32	1083.76
971.62	1082.26
971.91	1082.17
972.21	1082.10
972.50	1079.81
972.80	1076.76
973.09	1078.10
973.38	1076.11
973.68	1075.78
973.97	1077.44
974.27	1080.81
974.56	1079.64
974.85	1081.56
975.15	1080.65
975.44	1078.50
975.73	1075.90
976.03	1080.58
976.32	1079.64
976.61	1080.91
976.91	1080.46
977.20	1081.70
977.49	1077.33
977.79	1078.10
978.08	1077.91
978.37	1078.73
978.67	1078.59
978.96	1081.70
979.25	1081.82
979.55	1081.26
979.84	1082.76
980.13	1083.53
980.42	1082.61
980.72	1082.01
981.01	1080.67
981.30	1080.30
981.59	1081.00
981.89	1077.65
982.18	1077.54
982.47	1078.59
982.76	1075.36
983.06	1073.74
983.35	1077.14
983.64	1081.16
983.93	1080.18
984.22	1081.61
984.52	1080.25
984.81	1078.00
985.10	1072.76
985.39	1070.72
985.68	1073.74
985.97	1071.52
986.27	1069.72
986.56	1070.23
986.85	1073.58
987.14	1069.86
987.43	1072.43
987.72	1077.23
988.01	1076.20
988.31	1074.24
988.60	1079.46
988.89	1078.66
989.18	1078.21
989.47	1081.68
989.76	1083.81
990.05	1081.82
990.34	1084.35
990.63	1083.11
990.92	1079.71
991.21	1078.92
991.51	1077.35
991.80	1078.28
992.09	1080.77
992.38	1084.35
992.67	1083.01
992.96	1085.00
993.25	1081.63
993.54	1078.61
993.83	1073.32
994.12	1073.23
994.41	1073.00
994.70	1070.51
994.99	1066.82
995.28	1068.45
995.57	1070.51
995.86	1070.19
996.15	1072.25
996.44	1076.62
996.73	1079.74
997.02	1078.78
997.31	1078.61
997.59	1080.23
997.88	1083.34
998.17	1083.13
998.46	1086.45
998.75	1085.96
999.04	1083.93
999.33	1080.20
999.62	1079.29
999.91	1078.21
1000.20	1080.13
1000.49	1083.46
1000.77	1082.92
1001.06	1082.50
1001.35	1082.69
1001.64	1080.95
1001.93	1080.72
1002.22	1083.69
1002.51	1081.49
1002.79	1081.26
1003.08	1077.25
1003.37	1073.25
1003.66	1072.34
1003.95	1073.32
1004.23	1072.08
1004.52	1075.71
1004.81	1078.00
1005.10	1075.50
1005.39	1077.89
1005.67	1076.01
1005.96	1075.08
1006.25	1076.37
1006.54	1079.36
1006.83	1077.75
1007.11	1079.78
1007.40	1081.56
1007.69	1079.90
1007.97	1080.34
1008.26	1079.88
1008.55	1079.57
1008.84	1078.78
1009.12	1079.60
1009.41	1080.27
1009.70	1079.83
1009.98	1079.34
1010.27	1078.75
1010.56	1076.39
1010.85	1071.50
1011.13	1070.56
1011.42	1069.20
1011.71	1066.63
1011.99	1069.58
1012.28	1072.27
1012.56	1073.88
1012.85	1076.46
1013.14	1076.72
1013.42	1074.70
1013.71	1074.28
1014.00	1074.73
1014.28	1073.70
1014.57	1075.50
1014.85	1074.31
1015.14	1075.64
1015.43	1075.64
1015.71	1074.63
1016.00	1074.54
1016.28	1076.11
1016.57	1075.55
1016.85	1077.79
1017.14	1078.19
1017.43	1078.99
1017.71	1080.53
1018.00	1081.00
1018.28	1077.61
1018.57	1077.42
1018.85	1077.42
1019.14	1077.23
1019.42	1077.93
1019.71	1079.88
1019.99	1081.19
1020.28	1079.95
1020.56	1080.51
1020.85	1075.08
1021.13	1071.24
1021.42	1072.13
1021.70	1073.46
1021.99	1072.20
1022.27	1072.55
1022.55	1077.82
1022.84	1061.20
>>>>>End Processed Spectral Data<<<<<
