SpectraSuite Data File
++++++++++++++++++++++++++++++++++++
Date: Mon Aug 26 10:22:17 PDT 2019
User: corrico
Dark Spectrum Present: No
Reference Spectrum Present: No
Number of Sampled Component Spectra: 1
Spectrometers: USB2+H06089
Integration Time (usec): 2000 (USB2+H06089)
Spectra Averaged: 20 (USB2+H06089)
Boxcar Smoothing: 2 (USB2+H06089)
Correct for Electrical Dark: No (USB2+H06089)
Strobe/Lamp Enabled: No (USB2+H06089)
Correct for Detector Non-linearity: No (USB2+H06089)
Correct for Stray Light: No (USB2+H06089)
Number of Pixels in Processed Spectrum: 2048
>>>>>Begin Processed Spectral Data<<<<<
339.70	1020.12
340.07	1020.12
340.45	988.08
340.82	968.98
341.19	947.66
341.57	927.86
341.94	917.09
342.31	909.06
342.69	902.11
343.06	900.19
343.43	894.72
343.81	894.55
344.18	898.72
344.55	905.53
344.93	908.95
345.30	913.04
345.67	922.31
346.04	930.48
346.42	932.47
346.79	938.32
347.16	949.06
347.54	955.90
347.91	962.12
348.28	974.83
348.65	989.25
349.03	998.61
349.40	1009.57
349.77	1019.05
350.14	1029.37
350.52	1033.81
350.89	1042.19
351.26	1049.75
351.63	1054.15
352.01	1055.56
352.38	1061.83
352.75	1063.31
353.12	1067.80
353.50	1073.56
353.87	1075.64
354.24	1077.75
354.61	1078.71
354.98	1078.94
355.36	1080.02
355.73	1082.29
356.10	1082.17
356.47	1085.75
356.84	1084.16
357.22	1084.07
357.59	1086.34
357.96	1087.53
358.33	1086.76
358.70	1085.38
359.08	1085.40
359.45	1082.01
359.82	1078.99
360.19	1078.33
360.56	1082.15
360.94	1083.13
361.31	1084.44
361.68	1084.11
362.05	1083.11
362.42	1077.04
362.79	1074.94
363.16	1074.77
363.54	1073.84
363.91	1074.05
364.28	1075.57
364.65	1073.32
365.02	1074.91
365.39	1074.66
365.76	1073.77
366.14	1074.66
366.51	1078.45
366.88	1075.27
367.25	1075.55
367.62	1076.74
367.99	1073.25
368.36	1070.14
368.73	1071.12
369.10	1074.03
369.48	1072.34
369.85	1072.62
370.22	1072.97
370.59	1072.32
370.96	1068.08
371.33	1069.18
371.70	1069.46
372.07	1071.68
372.44	1069.06
372.81	1072.01
373.18	1073.70
373.55	1075.87
373.93	1075.99
374.30	1079.20
374.67	1081.42
375.04	1080.46
375.41	1083.25
375.78	1078.43
376.15	1078.28
376.52	1078.28
376.89	1078.45
377.26	1077.30
377.63	1081.96
378.00	1085.54
378.37	1082.43
378.74	1082.94
379.11	1082.38
379.48	1084.49
379.85	1080.63
380.22	1082.90
380.59	1080.72
380.96	1078.85
381.33	1076.62
381.70	1077.70
382.07	1073.28
382.44	1074.91
382.81	1077.56
383.18	1077.16
383.55	1078.87
383.92	1081.70
384.29	1083.43
384.66	1085.31
385.03	1084.77
385.40	1083.32
385.77	1082.61
386.14	1080.95
386.51	1078.78
386.88	1078.64
387.25	1079.27
387.62	1081.56
387.99	1084.02
388.36	1087.02
388.73	1090.01
389.10	1090.88
389.46	1088.07
389.83	1085.68
390.20	1084.02
390.57	1082.38
390.94	1080.70
391.31	1083.11
391.68	1081.58
392.05	1081.61
392.42	1081.73
392.79	1080.46
393.16	1080.04
393.53	1081.87
393.89	1081.26
394.26	1083.71
394.63	1085.80
395.00	1087.20
395.37	1088.65
395.74	1091.13
396.11	1091.11
396.48	1092.94
396.84	1094.86
397.21	1094.72
397.58	1093.01
397.95	1090.53
398.32	1094.29
398.69	1091.02
399.06	1092.12
399.42	1091.84
399.79	1097.08
400.16	1093.80
400.53	1096.05
400.90	1095.00
401.27	1094.72
401.64	1089.80
402.00	1092.16
402.37	1090.20
402.74	1090.34
403.11	1089.19
403.48	1086.15
403.84	1082.50
404.21	1083.64
404.58	1084.07
404.95	1085.21
405.32	1088.04
405.68	1089.99
406.05	1091.65
406.42	1093.29
406.79	1097.38
407.16	1097.29
407.52	1097.22
407.89	1095.00
408.26	1094.74
408.63	1093.87
408.99	1095.86
409.36	1094.48
409.73	1096.26
410.10	1095.28
410.47	1093.36
410.83	1094.86
411.20	1098.34
411.57	1100.03
411.94	1101.53
412.30	1101.67
412.67	1098.30
413.04	1097.69
413.40	1096.47
413.77	1097.08
414.14	1097.36
414.51	1103.05
414.87	1100.99
415.24	1102.98
415.61	1102.46
415.97	1102.28
416.34	1098.34
416.71	1100.05
417.08	1096.63
417.44	1099.09
417.81	1101.08
418.18	1106.30
418.54	1111.38
418.91	1116.93
419.28	1113.93
419.64	1116.46
420.01	1116.83
420.38	1113.18
420.74	1110.09
421.11	1117.28
421.48	1117.49
421.84	1117.61
422.21	1120.84
422.58	1127.39
422.94	1129.17
423.31	1133.71
423.68	1135.46
424.04	1139.77
424.41	1138.60
424.77	1136.99
425.14	1136.42
425.51	1138.67
425.87	1141.95
426.24	1150.02
426.61	1158.96
426.97	1169.43
427.34	1176.38
427.70	1177.10
428.07	1182.11
428.44	1186.82
428.80	1191.57
429.17	1202.59
429.53	1217.24
429.90	1225.25
430.27	1231.99
430.63	1242.43
431.00	1251.65
431.36	1259.44
431.73	1272.88
432.09	1286.59
432.46	1299.70
432.83	1313.95
433.19	1332.26
433.56	1350.72
433.92	1375.74
434.29	1398.35
434.65	1422.41
435.02	1441.86
435.38	1467.45
435.75	1493.31
436.11	1518.17
436.48	1546.51
436.84	1588.78
437.21	1624.43
437.57	1658.29
437.94	1703.04
438.30	1748.05
438.67	1790.28
439.03	1840.25
439.40	1896.77
439.76	1952.03
440.13	2010.40
440.49	2078.35
440.86	2145.15
441.22	2221.85
441.59	2299.55
441.95	2384.98
442.32	2469.24
442.68	2560.55
443.05	2650.73
443.41	2747.91
443.78	2842.79
444.14	2952.94
444.51	3066.48
444.87	3202.39
445.24	3337.28
445.60	3491.47
445.96	3638.74
446.33	3809.50
446.69	3975.21
447.06	4160.56
447.42	4349.84
447.79	4542.02
448.15	4763.62
448.51	4988.64
448.88	5248.37
449.24	5489.24
449.61	5772.53
449.97	6046.68
450.33	6335.74
450.70	6592.26
451.06	6920.29
451.43	7226.68
451.79	7592.02
452.15	7994.99
452.52	8450.15
452.88	8931.67
453.24	9473.58
453.61	10045.39
453.97	10617.30
454.34	11159.46
454.70	11787.64
455.06	12425.30
455.43	13042.28
455.79	13619.60
456.15	14334.56
456.52	14985.37
456.88	15742.86
457.24	16474.09
457.61	17326.12
457.97	18095.95
458.33	18900.86
458.70	19675.55
459.06	20445.09
459.42	21286.24
459.79	22093.60
460.15	22983.17
460.51	23846.10
460.88	24764.67
461.24	25561.48
461.60	26491.33
461.96	27379.96
462.33	28242.14
462.69	29076.19
463.05	29975.40
463.42	30762.34
463.78	31431.99
464.14	31986.86
464.50	32569.68
464.87	33018.59
465.23	33329.21
465.59	33643.05
465.95	33943.31
466.32	34188.79
466.68	34412.78
467.04	34558.85
467.40	34723.32
467.77	34873.14
468.13	34876.74
468.49	34787.27
468.85	34735.82
469.22	34565.69
469.58	34219.59
469.94	33959.77
470.30	33653.23
470.66	33209.23
471.03	32604.67
471.39	32215.34
471.75	31584.76
472.11	30994.52
472.47	30668.44
472.84	30371.96
473.20	29909.31
473.56	29637.45
473.92	29218.73
474.28	28691.13
474.65	28201.44
475.01	27739.40
475.37	27190.92
475.73	26759.06
476.09	26254.16
476.45	25746.20
476.81	25226.36
477.18	24691.95
477.54	24222.20
477.90	23853.01
478.26	23419.19
478.62	23059.31
478.98	22759.46
479.34	22411.19
479.71	21974.54
480.07	21618.08
480.43	21246.45
480.79	20847.50
481.15	20489.19
481.51	20167.04
481.87	19904.31
482.23	19610.90
482.59	19349.40
482.96	19075.01
483.32	18774.28
483.68	18413.67
484.04	18078.77
484.40	17711.86
484.76	17338.99
485.12	16986.86
485.48	16661.69
485.84	16301.08
486.20	15939.84
486.56	15565.64
486.92	15247.09
487.28	14899.99
487.64	14545.96
488.00	14230.41
488.37	13912.21
488.73	13548.21
489.09	13180.40
489.45	12877.25
489.81	12557.72
490.17	12258.56
490.53	11981.37
490.89	11696.08
491.25	11391.41
491.61	11076.37
491.97	10757.59
492.33	10425.87
492.69	10127.57
493.05	9823.86
493.41	9543.02
493.77	9273.60
494.13	9022.53
494.49	8763.48
494.85	8517.82
495.21	8280.07
495.57	8058.93
495.93	7838.01
496.29	7622.89
496.64	7438.22
497.00	7239.49
497.36	7040.89
497.72	6849.88
498.08	6674.74
498.44	6486.09
498.80	6322.82
499.16	6159.14
499.52	6000.10
499.88	5855.79
500.24	5732.88
500.60	5603.90
500.96	5484.23
501.32	5368.23
501.68	5255.25
502.03	5125.16
502.39	4993.30
502.75	4851.37
503.11	4723.06
503.47	4601.14
503.83	4476.20
504.19	4355.81
504.55	4254.06
504.91	4160.23
505.26	4063.59
505.62	3977.60
505.98	3894.63
506.34	3803.42
506.70	3713.99
507.06	3620.69
507.42	3536.20
507.78	3458.02
508.13	3383.20
508.49	3300.51
508.85	3235.39
509.21	3164.15
509.57	3095.80
509.93	3031.32
510.28	2973.88
510.64	2908.26
511.00	2852.76
511.36	2792.12
511.72	2734.42
512.07	2684.66
512.43	2628.91
512.79	2569.51
513.15	2520.50
513.51	2472.00
513.86	2420.21
514.22	2382.76
514.58	2345.26
514.94	2310.44
515.30	2274.60
515.65	2235.21
516.01	2203.38
516.37	2170.75
516.73	2141.75
517.08	2114.63
517.44	2088.79
517.80	2061.73
518.16	2040.74
518.51	2008.65
518.87	1976.96
519.23	1952.85
519.59	1923.34
519.94	1893.47
520.30	1870.88
520.66	1848.79
521.01	1827.44
521.37	1806.61
521.73	1784.73
522.09	1764.04
522.44	1746.88
522.80	1719.38
523.16	1698.29
523.51	1676.74
523.87	1658.11
524.23	1638.16
524.58	1620.21
524.94	1603.15
525.30	1584.61
525.65	1564.93
526.01	1545.15
526.37	1534.92
526.72	1520.41
527.08	1506.98
527.44	1497.97
527.79	1485.40
528.15	1471.00
528.51	1460.82
528.86	1452.40
529.22	1438.56
529.58	1428.38
529.93	1415.67
530.29	1405.52
530.65	1392.27
531.00	1381.67
531.36	1374.95
531.71	1369.47
532.07	1357.28
532.43	1351.31
532.78	1347.82
533.14	1341.20
533.49	1337.78
533.85	1335.16
534.21	1326.29
534.56	1316.53
534.92	1308.57
535.27	1297.80
535.63	1289.10
535.98	1286.92
536.34	1279.78
536.69	1273.84
537.05	1266.30
537.41	1259.89
537.76	1251.18
538.12	1249.10
538.47	1246.03
538.83	1241.89
539.18	1237.68
539.54	1234.16
539.89	1228.17
540.25	1222.86
540.60	1219.42
540.96	1216.63
541.31	1214.53
541.67	1211.79
542.02	1211.27
542.38	1207.46
542.73	1204.93
543.09	1201.12
543.44	1199.97
543.80	1192.88
544.15	1190.26
544.51	1186.46
544.86	1184.01
545.22	1178.83
545.57	1176.56
545.93	1172.89
546.28	1171.93
546.64	1169.78
546.99	1166.62
547.35	1165.40
547.70	1167.53
548.05	1162.47
548.41	1161.56
548.76	1159.50
549.12	1157.37
549.47	1153.25
549.83	1151.12
550.18	1147.99
550.53	1147.33
550.89	1146.32
551.24	1146.44
551.60	1145.22
551.95	1145.06
552.30	1144.43
552.66	1144.01
553.01	1141.46
553.37	1140.87
553.72	1138.23
554.07	1138.46
554.43	1135.04
554.78	1132.49
555.13	1132.77
555.49	1132.40
555.84	1129.47
556.19	1128.54
556.55	1129.10
556.90	1127.32
557.26	1125.07
557.61	1122.26
557.96	1120.93
558.32	1120.93
558.67	1117.23
559.02	1117.42
559.37	1119.85
559.73	1117.70
560.08	1112.48
560.43	1113.65
560.79	1112.32
561.14	1109.55
561.49	1111.38
561.85	1112.43
562.20	1112.41
562.55	1112.57
562.90	1112.90
563.26	1111.71
563.61	1111.36
563.96	1112.62
564.32	1107.28
564.67	1108.66
565.02	1109.88
565.37	1107.96
565.73	1103.33
566.08	1104.71
566.43	1102.91
566.78	1100.57
567.14	1101.60
567.49	1103.26
567.84	1105.20
568.19	1105.22
568.54	1105.34
568.90	1106.42
569.25	1106.56
569.60	1105.08
569.95	1104.36
570.31	1105.58
570.66	1104.52
571.01	1102.49
571.36	1102.67
571.71	1100.96
572.06	1095.46
572.42	1095.39
572.77	1096.63
573.12	1096.89
573.47	1096.45
573.82	1100.33
574.18	1097.36
574.53	1095.39
574.88	1092.70
575.23	1093.10
575.58	1092.89
575.93	1097.41
576.28	1098.11
576.64	1100.05
576.99	1102.09
577.34	1099.35
577.69	1098.62
578.04	1101.36
578.39	1100.52
578.74	1097.41
579.09	1100.00
579.44	1098.74
579.80	1094.69
580.15	1096.24
580.50	1095.98
580.85	1092.94
581.20	1093.36
581.55	1094.18
581.90	1092.37
582.25	1091.51
582.60	1090.90
582.95	1090.85
583.30	1092.23
583.65	1091.20
584.00	1091.39
584.35	1092.87
584.71	1090.32
585.06	1087.76
585.41	1089.26
585.76	1089.36
586.11	1087.18
586.46	1085.19
586.81	1085.61
587.16	1085.07
587.51	1083.64
587.86	1085.14
588.21	1088.09
588.56	1086.85
588.91	1086.80
589.26	1087.67
589.61	1088.77
589.96	1088.49
590.31	1090.92
590.66	1091.70
591.01	1094.83
591.36	1092.68
591.71	1091.13
592.06	1090.06
592.41	1088.61
592.76	1084.07
593.10	1084.86
593.45	1088.28
593.80	1089.94
594.15	1092.84
594.50	1092.63
594.85	1091.02
595.20	1089.14
595.55	1087.09
595.90	1083.64
596.25	1088.04
596.60	1090.29
596.95	1087.13
597.30	1088.40
597.64	1097.50
597.99	1098.09
598.34	1099.26
598.69	1103.68
599.04	1103.35
599.39	1093.55
599.74	1090.71
600.09	1088.04
600.44	1085.21
600.78	1085.87
601.13	1088.61
601.48	1092.82
601.83	1093.43
602.18	1095.02
602.53	1095.75
602.88	1091.63
603.22	1090.43
603.57	1091.30
603.92	1092.02
604.27	1088.16
604.62	1090.53
604.97	1084.65
605.31	1084.98
605.66	1081.75
606.01	1085.73
606.36	1085.38
606.71	1089.47
607.05	1089.92
607.40	1091.63
607.75	1092.52
608.10	1090.27
608.44	1088.96
608.79	1089.12
609.14	1088.61
609.49	1086.13
609.84	1084.53
610.18	1085.94
610.53	1086.99
610.88	1087.62
611.23	1088.91
611.57	1092.80
611.92	1091.25
612.27	1090.34
612.62	1089.40
612.96	1086.17
613.31	1086.85
613.66	1084.79
614.00	1083.25
614.35	1084.21
614.70	1083.90
615.05	1081.63
615.39	1081.66
615.74	1083.43
616.09	1078.21
616.43	1077.61
616.78	1077.49
617.13	1079.74
617.47	1079.15
617.82	1082.97
618.17	1085.03
618.51	1088.12
618.86	1085.61
619.21	1084.74
619.55	1084.09
619.90	1082.33
620.25	1079.38
620.59	1082.29
620.94	1083.01
621.29	1086.22
621.63	1088.33
621.98	1089.75
622.32	1086.87
622.67	1085.47
623.02	1083.53
623.36	1082.47
623.71	1082.61
624.05	1084.37
624.40	1086.27
624.75	1088.07
625.09	1087.41
625.44	1086.59
625.78	1086.57
626.13	1087.25
626.48	1085.07
626.82	1085.47
627.17	1085.61
627.51	1086.83
627.86	1079.01
628.20	1077.70
628.55	1077.47
628.89	1076.93
629.24	1076.58
629.58	1080.81
629.93	1083.36
630.28	1084.63
630.62	1085.54
630.97	1082.38
631.31	1082.50
631.66	1079.17
632.00	1079.20
632.35	1077.30
632.69	1080.23
633.04	1080.72
633.38	1083.50
633.73	1083.64
634.07	1086.66
634.42	1088.49
634.76	1089.59
635.11	1088.12
635.45	1086.29
635.79	1084.51
636.14	1079.81
636.48	1080.02
636.83	1079.60
637.17	1082.71
637.52	1085.03
637.86	1090.46
638.21	1091.44
638.55	1090.90
638.89	1086.76
639.24	1083.53
639.58	1082.24
639.93	1084.81
640.27	1086.15
640.61	1089.52
640.96	1088.86
641.30	1088.56
641.65	1083.79
641.99	1085.12
642.33	1082.52
642.68	1082.73
643.02	1081.33
643.37	1079.78
643.71	1076.41
644.05	1076.60
644.40	1076.62
644.74	1075.10
645.08	1075.24
645.43	1076.72
645.77	1079.85
646.11	1082.15
646.46	1082.50
646.80	1085.66
647.14	1083.90
647.49	1080.27
647.83	1080.09
648.17	1079.83
648.52	1077.61
648.86	1078.10
649.20	1083.08
649.55	1083.06
649.89	1083.29
650.23	1083.95
650.57	1089.17
650.92	1085.49
651.26	1084.18
651.60	1086.55
651.95	1086.45
652.29	1081.49
652.63	1079.17
652.97	1078.57
653.32	1075.57
653.66	1077.21
654.00	1079.01
654.34	1082.94
654.69	1085.59
655.03	1087.81
655.37	1085.84
655.71	1086.22
656.05	1085.70
656.40	1084.86
656.74	1082.92
657.08	1082.36
657.42	1081.02
657.76	1078.85
658.11	1078.59
658.45	1081.37
658.79	1081.56
659.13	1086.01
659.47	1087.44
659.82	1089.33
660.16	1085.19
660.50	1088.70
660.84	1084.96
661.18	1084.98
661.52	1080.56
661.87	1079.60
662.21	1075.52
662.55	1074.52
662.89	1071.78
663.23	1074.59
663.57	1079.17
663.91	1079.22
664.25	1079.64
664.60	1080.56
664.94	1077.56
665.28	1075.05
665.62	1077.82
665.96	1077.02
666.30	1078.89
666.64	1081.70
666.98	1082.15
667.32	1081.35
667.66	1085.05
668.01	1082.57
668.35	1083.11
668.69	1082.78
669.03	1080.91
669.37	1079.29
669.71	1080.16
670.05	1079.43
670.39	1085.26
670.73	1088.04
671.07	1087.74
671.41	1090.22
671.75	1090.32
672.09	1084.21
672.43	1080.77
672.77	1079.24
673.11	1075.73
673.45	1074.38
673.79	1074.96
674.13	1076.15
674.47	1080.56
674.81	1082.36
675.15	1082.26
675.49	1083.79
675.83	1085.12
676.17	1080.79
676.51	1080.98
676.85	1080.34
677.19	1080.04
677.53	1078.85
677.87	1076.74
678.21	1076.76
678.55	1077.86
678.89	1077.63
679.23	1075.57
679.57	1077.63
679.90	1079.15
680.24	1077.30
680.58	1078.99
680.92	1081.00
681.26	1082.33
681.60	1080.56
681.94	1081.19
682.28	1077.07
682.62	1077.14
682.96	1078.03
683.29	1077.42
683.63	1079.29
683.97	1084.18
684.31	1082.85
684.65	1081.28
684.99	1081.82
685.33	1083.13
685.67	1080.09
686.00	1081.89
686.34	1079.17
686.68	1078.61
687.02	1074.63
687.36	1077.28
687.70	1077.23
688.03	1079.74
688.37	1081.28
688.71	1083.36
689.05	1081.09
689.39	1079.29
689.72	1080.23
690.06	1081.51
690.40	1080.09
690.74	1076.60
691.08	1080.06
691.41	1080.84
691.75	1080.77
692.09	1084.04
692.43	1086.43
692.76	1085.35
693.10	1083.36
693.44	1082.85
693.78	1081.58
694.11	1080.32
694.45	1078.07
694.79	1078.28
695.13	1074.87
695.46	1073.00
695.80	1072.97
696.14	1074.33
696.48	1073.14
696.81	1077.18
697.15	1077.04
697.49	1080.11
697.82	1080.88
698.16	1084.77
698.50	1084.65
698.83	1083.95
699.17	1083.60
699.51	1082.47
699.84	1080.98
700.18	1079.99
700.52	1080.81
700.85	1081.77
701.19	1081.19
701.53	1079.83
701.86	1079.62
702.20	1082.80
702.54	1082.38
702.87	1082.19
703.21	1081.16
703.55	1082.40
703.88	1080.63
704.22	1079.90
704.55	1081.89
704.89	1084.18
705.23	1082.43
705.56	1083.01
705.90	1083.62
706.23	1083.86
706.57	1082.54
706.91	1082.54
707.24	1079.48
707.58	1081.19
707.91	1079.81
708.25	1082.71
708.58	1081.82
708.92	1085.26
709.26	1081.12
709.59	1081.87
709.93	1076.58
710.26	1074.12
710.60	1069.74
710.93	1070.05
711.27	1069.62
711.60	1073.72
711.94	1079.64
712.27	1080.34
712.61	1081.07
712.94	1077.11
713.28	1075.59
713.61	1076.27
713.95	1078.36
714.28	1077.47
714.62	1080.86
714.95	1081.98
715.29	1081.26
715.62	1082.40
715.96	1082.40
716.29	1082.47
716.63	1083.01
716.96	1082.61
717.29	1082.03
717.63	1081.49
717.96	1081.70
718.30	1080.41
718.63	1078.64
718.97	1079.10
719.30	1079.67
719.63	1080.81
719.97	1082.12
720.30	1079.50
720.64	1078.45
720.97	1079.50
721.30	1078.54
721.64	1080.37
721.97	1081.02
722.31	1081.23
722.64	1082.10
722.97	1081.35
723.31	1077.44
723.64	1078.45
723.97	1076.83
724.31	1075.03
724.64	1075.94
724.98	1077.14
725.31	1076.79
725.64	1076.93
725.98	1076.15
726.31	1077.51
726.64	1074.70
726.97	1074.54
727.31	1077.72
727.64	1078.92
727.97	1078.92
728.31	1082.01
728.64	1083.43
728.97	1082.43
729.31	1084.32
729.64	1082.45
729.97	1082.92
730.30	1083.57
730.64	1082.01
730.97	1080.77
731.30	1083.20
731.63	1080.20
731.97	1079.78
732.30	1082.12
732.63	1084.16
732.96	1083.95
733.30	1084.91
733.63	1082.50
733.96	1081.91
734.29	1079.15
734.63	1078.21
734.96	1077.77
735.29	1077.11
735.62	1076.34
735.95	1077.11
736.29	1076.53
736.62	1081.23
736.95	1083.74
737.28	1085.73
737.61	1083.01
737.94	1082.54
738.28	1080.13
738.61	1079.71
738.94	1078.64
739.27	1081.42
739.60	1082.80
739.93	1082.29
740.27	1084.35
740.60	1083.67
740.93	1084.81
741.26	1085.63
741.59	1086.03
741.92	1084.21
742.25	1087.88
742.58	1085.89
742.91	1084.07
743.25	1078.07
743.58	1076.97
743.91	1073.98
744.24	1076.95
744.57	1076.27
744.90	1082.19
745.23	1079.74
745.56	1078.19
745.89	1076.25
746.22	1079.78
746.55	1081.00
746.88	1084.11
747.21	1086.92
747.54	1086.08
747.87	1084.02
748.20	1082.05
748.53	1081.14
748.87	1080.41
749.20	1082.03
749.53	1078.57
749.86	1078.92
750.19	1081.75
750.52	1081.23
750.85	1082.29
751.18	1086.50
751.51	1085.03
751.84	1082.24
752.16	1084.58
752.49	1081.84
752.82	1080.27
753.15	1080.48
753.48	1081.49
753.81	1078.43
754.14	1080.13
754.47	1078.89
754.80	1079.06
755.13	1078.82
755.46	1082.43
755.79	1079.78
756.12	1080.30
756.45	1080.27
756.78	1078.43
757.11	1073.02
757.43	1074.00
757.76	1077.93
758.09	1079.01
758.42	1084.98
758.75	1085.52
759.08	1085.31
759.41	1080.60
759.74	1080.51
760.07	1077.11
760.39	1077.04
760.72	1077.79
761.05	1079.20
761.38	1079.08
761.71	1077.07
762.04	1079.31
762.36	1078.17
762.69	1078.96
763.02	1080.91
763.35	1080.95
763.68	1080.70
764.01	1084.37
764.33	1084.91
764.66	1082.26
764.99	1084.16
765.32	1082.71
765.65	1078.66
765.97	1076.23
766.30	1074.87
766.63	1073.95
766.96	1075.71
767.28	1079.64
767.61	1077.68
767.94	1075.20
768.27	1076.39
768.59	1075.41
768.92	1075.01
769.25	1078.33
769.58	1083.22
769.90	1084.60
770.23	1083.48
770.56	1077.84
770.89	1076.81
771.21	1077.16
771.54	1076.08
771.87	1080.23
772.19	1082.36
772.52	1083.76
772.85	1082.38
773.17	1083.69
773.50	1082.19
773.83	1081.23
774.15	1080.72
774.48	1083.53
774.81	1080.56
775.13	1076.62
775.46	1078.57
775.79	1078.92
776.11	1075.36
776.44	1076.15
776.77	1079.46
777.09	1079.76
777.42	1080.79
777.74	1083.62
778.07	1083.57
778.40	1084.00
778.72	1082.59
779.05	1080.86
779.37	1079.08
779.70	1077.91
780.03	1079.03
780.35	1078.52
780.68	1076.69
781.00	1075.13
781.33	1074.03
781.65	1071.68
781.98	1074.38
782.31	1075.52
782.63	1077.18
782.96	1081.70
783.28	1077.79
783.61	1076.30
783.93	1076.32
784.26	1075.20
784.58	1073.02
784.91	1077.37
785.23	1077.42
785.56	1079.81
785.88	1081.44
786.21	1078.05
786.53	1078.64
786.86	1076.97
787.18	1074.45
787.51	1075.66
787.83	1077.44
788.16	1077.58
788.48	1078.33
788.81	1079.48
789.13	1078.03
789.46	1081.16
789.78	1080.18
790.10	1082.05
790.43	1081.96
790.75	1081.89
791.08	1083.64
791.40	1083.36
791.73	1083.32
792.05	1084.30
792.37	1085.75
792.70	1081.82
793.02	1084.70
793.35	1081.47
793.67	1080.18
793.99	1078.45
794.32	1078.85
794.64	1077.91
794.96	1078.68
795.29	1077.75
795.61	1078.75
795.93	1079.22
796.26	1077.58
796.58	1078.68
796.91	1079.85
797.23	1080.39
797.55	1081.87
797.87	1083.74
798.20	1084.84
798.52	1082.61
798.84	1082.22
799.17	1080.32
799.49	1078.57
799.81	1079.69
800.14	1082.71
800.46	1083.81
800.78	1084.07
801.10	1082.36
801.43	1080.48
801.75	1080.46
802.07	1080.02
802.40	1080.98
802.72	1083.57
803.04	1085.17
803.36	1084.89
803.69	1081.87
804.01	1077.72
804.33	1075.87
804.65	1075.90
804.97	1075.08
805.30	1076.83
805.62	1080.67
805.94	1078.68
806.26	1080.46
806.58	1078.89
806.91	1078.64
807.23	1076.32
807.55	1078.50
807.87	1075.55
808.19	1077.79
808.52	1079.83
808.84	1077.65
809.16	1077.63
809.48	1080.32
809.80	1079.64
810.12	1079.50
810.44	1083.88
810.77	1085.28
811.09	1082.12
811.41	1082.15
811.73	1080.32
812.05	1079.62
812.37	1079.48
812.69	1078.00
813.01	1077.42
813.33	1075.64
813.66	1076.74
813.98	1075.36
814.30	1080.16
814.62	1080.41
814.94	1081.37
815.26	1083.36
815.58	1083.83
815.90	1080.44
816.22	1078.64
816.54	1078.96
816.86	1075.48
817.18	1074.94
817.50	1078.07
817.82	1079.55
818.14	1080.37
818.46	1078.14
818.78	1077.28
819.10	1072.88
819.42	1071.71
819.74	1072.83
820.06	1074.96
820.38	1074.49
820.70	1075.64
821.02	1075.78
821.34	1074.73
821.66	1074.96
821.98	1075.29
822.30	1074.31
822.62	1074.63
822.94	1074.49
823.26	1073.30
823.58	1073.21
823.90	1077.18
824.22	1077.54
824.54	1076.23
824.86	1076.32
825.18	1077.98
825.50	1076.39
825.81	1078.61
826.13	1078.19
826.45	1078.19
826.77	1077.30
827.09	1076.32
827.41	1075.45
827.73	1076.32
828.05	1077.58
828.36	1077.42
828.68	1075.17
829.00	1072.50
829.32	1068.90
829.64	1068.99
829.96	1071.94
830.28	1070.84
830.59	1072.85
830.91	1077.72
831.23	1079.53
831.55	1074.96
831.87	1079.53
832.19	1080.27
832.50	1079.53
832.82	1078.50
833.14	1080.41
833.46	1081.49
833.78	1078.85
834.09	1075.85
834.41	1076.44
834.73	1077.70
835.05	1077.14
835.36	1078.14
835.68	1080.58
836.00	1077.89
836.32	1075.31
836.63	1075.27
836.95	1074.17
837.27	1076.83
837.59	1078.05
837.90	1079.22
838.22	1077.23
838.54	1078.24
838.85	1078.33
839.17	1077.93
839.49	1076.48
839.80	1073.95
840.12	1076.69
840.44	1075.15
840.76	1077.77
841.07	1081.87
841.39	1088.26
841.71	1084.07
842.02	1083.76
842.34	1083.39
842.65	1081.63
842.97	1078.59
843.29	1081.23
843.60	1078.82
843.92	1077.30
844.24	1077.00
844.55	1079.08
844.87	1079.17
845.18	1081.84
845.50	1083.83
845.82	1083.79
846.13	1083.57
846.45	1085.56
846.76	1085.40
847.08	1083.50
847.40	1082.19
847.71	1080.16
848.03	1077.75
848.34	1075.85
848.66	1076.20
848.97	1077.72
849.29	1078.66
849.60	1078.50
849.92	1078.26
850.24	1077.93
850.55	1076.67
850.87	1074.45
851.18	1071.40
851.50	1072.11
851.81	1071.47
852.13	1073.81
852.44	1071.73
852.76	1074.87
853.07	1075.85
853.39	1076.86
853.70	1074.52
854.01	1078.66
854.33	1079.81
854.64	1079.29
854.96	1079.69
855.27	1081.14
855.59	1080.13
855.90	1080.46
856.22	1081.16
856.53	1081.66
856.84	1079.78
857.16	1081.61
857.47	1082.52
857.79	1082.76
858.10	1082.52
858.41	1084.67
858.73	1083.39
859.04	1080.30
859.36	1080.74
859.67	1076.97
859.98	1074.54
860.30	1075.90
860.61	1073.49
860.92	1071.80
861.24	1073.28
861.55	1076.39
861.87	1075.27
862.18	1080.65
862.49	1080.53
862.81	1080.44
863.12	1078.59
863.43	1078.52
863.74	1076.34
864.06	1076.76
864.37	1076.67
864.68	1077.58
865.00	1080.60
865.31	1078.68
865.62	1081.37
865.94	1083.64
866.25	1084.37
866.56	1081.77
866.87	1082.76
867.19	1081.02
867.50	1079.17
867.81	1079.92
868.12	1080.02
868.44	1079.95
868.75	1082.43
869.06	1084.56
869.37	1084.37
869.68	1084.37
870.00	1083.69
870.31	1078.50
870.62	1077.54
870.93	1076.55
871.24	1077.18
871.56	1077.96
871.87	1079.85
872.18	1081.12
872.49	1080.23
872.80	1081.23
873.12	1082.64
873.43	1083.13
873.74	1079.99
874.05	1081.19
874.36	1078.89
874.67	1076.95
874.98	1077.77
875.29	1079.22
875.61	1076.79
875.92	1075.45
876.23	1078.33
876.54	1075.29
876.85	1075.03
877.16	1078.52
877.47	1079.76
877.78	1077.23
878.09	1077.72
878.40	1077.72
878.72	1077.09
879.03	1075.45
879.34	1077.49
879.65	1079.10
879.96	1078.38
880.27	1078.24
880.58	1081.30
880.89	1080.30
881.20	1080.27
881.51	1080.06
881.82	1077.98
882.13	1075.99
882.44	1076.41
882.75	1075.99
883.06	1075.97
883.37	1079.99
883.68	1079.29
883.99	1077.79
884.30	1077.04
884.61	1077.96
884.92	1075.71
885.23	1077.86
885.54	1080.37
885.85	1082.78
886.16	1081.49
886.47	1080.30
886.78	1076.51
887.08	1073.02
887.39	1069.32
887.70	1072.04
888.01	1072.25
888.32	1075.66
888.63	1077.07
888.94	1078.85
889.25	1075.15
889.56	1072.57
889.87	1073.81
890.17	1072.32
890.48	1073.18
890.79	1079.13
891.10	1082.64
891.41	1080.91
891.72	1082.29
892.03	1082.33
892.34	1078.40
892.64	1079.99
892.95	1079.78
893.26	1077.91
893.57	1079.97
893.88	1079.78
894.18	1076.27
894.49	1075.73
894.80	1075.94
895.11	1075.85
895.42	1078.87
895.72	1081.91
896.03	1083.93
896.34	1088.09
896.65	1086.50
896.96	1081.75
897.26	1079.29
897.57	1075.20
897.88	1075.17
898.19	1073.09
898.49	1080.09
898.80	1081.91
899.11	1084.28
899.41	1083.22
899.72	1083.90
900.03	1078.61
900.34	1077.44
900.64	1075.78
900.95	1072.92
901.26	1074.49
901.56	1074.05
901.87	1075.78
902.18	1076.41
902.48	1080.37
902.79	1082.38
903.10	1084.04
903.40	1082.10
903.71	1086.78
904.02	1084.28
904.32	1081.80
904.63	1082.31
904.94	1082.12
905.24	1077.93
905.55	1078.96
905.85	1078.94
906.16	1077.40
906.47	1077.44
906.77	1077.82
907.08	1078.52
907.38	1078.40
907.69	1078.45
908.00	1079.97
908.30	1080.58
908.61	1078.14
908.91	1079.27
909.22	1083.04
909.52	1082.19
909.83	1082.92
910.14	1088.47
910.44	1087.76
910.75	1083.93
911.05	1083.34
911.36	1081.96
911.66	1079.46
911.97	1080.23
912.27	1081.09
912.58	1083.18
912.88	1083.25
913.19	1082.64
913.49	1080.67
913.80	1079.64
914.10	1078.28
914.41	1077.18
914.71	1074.31
915.01	1075.22
915.32	1073.23
915.62	1069.86
915.93	1070.37
916.23	1070.49
916.54	1072.95
916.84	1075.69
917.15	1078.96
917.45	1080.46
917.75	1084.65
918.06	1082.66
918.36	1083.29
918.67	1080.34
918.97	1078.94
919.27	1077.23
919.58	1074.63
919.88	1072.69
920.18	1075.66
920.49	1077.07
920.79	1079.24
921.10	1082.08
921.40	1083.15
921.70	1084.77
922.01	1082.50
922.31	1080.56
922.61	1078.28
922.92	1079.06
923.22	1078.05
923.52	1077.40
923.82	1076.13
924.13	1076.23
924.43	1076.27
924.73	1073.30
925.04	1076.25
925.34	1075.92
925.64	1076.48
925.94	1076.20
926.25	1076.51
926.55	1078.59
926.85	1079.95
927.15	1079.74
927.46	1074.82
927.76	1076.69
928.06	1072.64
928.36	1072.18
928.67	1072.74
928.97	1076.32
929.27	1074.98
929.57	1075.01
929.87	1074.96
930.18	1077.21
930.48	1075.85
930.78	1075.13
931.08	1076.97
931.38	1076.95
931.69	1074.03
931.99	1076.46
932.29	1079.50
932.59	1081.26
932.89	1078.87
933.19	1079.85
933.49	1077.63
933.80	1076.13
934.10	1073.79
934.40	1074.84
934.70	1070.75
935.00	1073.11
935.30	1073.65
935.60	1074.82
935.90	1076.79
936.20	1079.78
936.50	1082.05
936.81	1082.31
937.11	1079.50
937.41	1081.05
937.71	1080.93
938.01	1078.50
938.31	1079.57
938.61	1082.87
938.91	1083.41
939.21	1083.86
939.51	1082.76
939.81	1081.02
940.11	1078.87
940.41	1078.94
940.71	1080.06
941.01	1081.44
941.31	1081.75
941.61	1083.11
941.91	1080.06
942.21	1077.75
942.51	1076.46
942.81	1075.22
943.11	1075.55
943.41	1078.94
943.71	1080.67
944.01	1082.10
944.31	1083.13
944.61	1083.76
944.90	1081.91
945.20	1082.90
945.50	1081.26
945.80	1082.05
946.10	1080.98
946.40	1080.11
946.70	1076.46
947.00	1080.46
947.30	1079.20
947.60	1077.00
947.89	1074.10
948.19	1078.03
948.49	1073.72
948.79	1075.83
949.09	1076.76
949.39	1076.95
949.69	1075.38
949.98	1077.84
950.28	1076.06
950.58	1076.11
950.88	1077.02
951.18	1074.38
951.48	1073.93
951.77	1071.01
952.07	1070.42
952.37	1070.00
952.67	1072.43
952.97	1070.65
953.26	1077.21
953.56	1078.12
953.86	1079.90
954.16	1080.79
954.45	1081.30
954.75	1077.68
955.05	1077.79
955.35	1076.53
955.64	1075.76
955.94	1075.71
956.24	1078.33
956.54	1079.43
956.83	1080.88
957.13	1079.64
957.43	1078.31
957.72	1075.03
958.02	1074.89
958.32	1076.67
958.61	1077.33
958.91	1080.58
959.21	1080.79
959.50	1079.78
959.80	1079.17
960.10	1078.14
960.39	1078.80
960.69	1079.60
960.99	1081.51
961.28	1080.95
961.58	1082.71
961.87	1080.39
962.17	1079.27
962.47	1077.82
962.76	1077.23
963.06	1075.97
963.36	1075.20
963.65	1074.84
963.95	1074.68
964.24	1074.59
964.54	1076.51
964.83	1078.19
965.13	1079.95
965.42	1081.19
965.72	1082.19
966.02	1083.18
966.31	1083.90
966.61	1081.49
966.90	1079.13
967.20	1075.69
967.49	1076.20
967.79	1073.35
968.08	1074.98
968.38	1078.38
968.67	1081.35
968.97	1080.41
969.26	1081.75
969.56	1080.84
969.85	1078.38
970.15	1076.93
970.44	1075.41
970.74	1075.20
971.03	1075.13
971.32	1078.10
971.62	1078.57
971.91	1077.93
972.21	1078.80
972.50	1080.04
972.80	1073.63
973.09	1072.08
973.38	1069.62
973.68	1069.06
973.97	1071.36
974.27	1074.42
974.56	1076.83
974.85	1079.95
975.15	1079.57
975.44	1078.38
975.73	1080.56
976.03	1080.16
976.32	1077.98
976.61	1078.85
976.91	1079.95
977.20	1079.10
977.49	1079.22
977.79	1080.11
978.08	1081.96
978.37	1080.79
978.67	1080.60
978.96	1080.11
979.25	1083.57
979.55	1081.94
979.84	1080.63
980.13	1079.48
980.42	1080.67
980.72	1078.12
981.01	1080.53
981.30	1080.41
981.59	1080.93
981.89	1080.32
982.18	1084.02
982.47	1082.10
982.76	1080.79
983.06	1080.51
983.35	1078.05
983.64	1072.71
983.93	1071.01
984.22	1070.68
984.52	1069.30
984.81	1072.64
985.10	1072.78
985.39	1072.43
985.68	1074.03
985.97	1076.90
986.27	1076.13
986.56	1077.37
986.85	1077.65
987.14	1075.71
987.43	1073.51
987.72	1071.38
988.01	1070.61
988.31	1074.63
988.60	1077.16
988.89	1079.48
989.18	1081.77
989.47	1084.79
989.76	1080.60
990.05	1079.85
990.34	1077.65
990.63	1077.30
990.92	1075.24
991.21	1075.29
991.51	1076.08
991.80	1077.65
992.09	1078.57
992.38	1080.56
992.67	1082.97
992.96	1080.53
993.25	1078.31
993.54	1078.33
993.83	1075.83
994.12	1073.30
994.41	1077.02
994.70	1079.13
994.99	1080.41
995.28	1082.03
995.57	1083.95
995.86	1084.70
996.15	1083.27
996.44	1079.76
996.73	1081.26
997.02	1081.09
997.31	1078.40
997.59	1079.69
997.88	1082.54
998.17	1081.73
998.46	1080.44
998.75	1080.93
999.04	1081.16
999.33	1079.71
999.62	1079.20
999.91	1079.31
1000.20	1078.00
1000.49	1076.44
1000.77	1073.09
1001.06	1074.54
1001.35	1075.73
1001.64	1076.48
1001.93	1077.54
1002.22	1081.09
1002.51	1078.19
1002.79	1078.26
1003.08	1076.44
1003.37	1076.11
1003.66	1075.03
1003.95	1077.56
1004.23	1074.68
1004.52	1077.21
1004.81	1075.15
1005.10	1076.60
1005.39	1074.14
1005.67	1076.93
1005.96	1077.61
1006.25	1081.58
1006.54	1080.48
1006.83	1082.57
1007.11	1082.54
1007.40	1080.70
1007.69	1078.59
1007.97	1081.70
1008.26	1077.93
1008.55	1079.20
1008.84	1079.03
1009.12	1078.12
1009.41	1073.67
1009.70	1076.88
1009.98	1074.05
1010.27	1075.92
1010.56	1078.00
1010.85	1081.30
1011.13	1080.60
1011.42	1080.60
1011.71	1079.27
1011.99	1080.06
1012.28	1075.83
1012.56	1077.09
1012.85	1075.87
1013.14	1073.53
1013.42	1073.79
1013.71	1075.80
1014.00	1073.74
1014.28	1076.58
1014.57	1078.43
1014.85	1073.65
1015.14	1074.59
1015.43	1075.22
1015.71	1073.07
1016.00	1075.73
1016.28	1078.03
1016.57	1077.00
1016.85	1075.50
1017.14	1073.16
1017.43	1069.37
1017.71	1068.31
1018.00	1069.65
1018.28	1069.95
1018.57	1073.77
1018.85	1076.62
1019.14	1078.50
1019.42	1079.24
1019.71	1084.79
1019.99	1086.50
1020.28	1084.53
1020.56	1080.56
1020.85	1081.21
1021.13	1077.49
1021.42	1076.23
1021.70	1076.53
1021.99	1081.14
1022.27	1080.27
1022.55	1083.20
1022.84	1084.25
>>>>>End Processed Spectral Data<<<<<
