SpectraSuite Data File
++++++++++++++++++++++++++++++++++++
Date: Mon Aug 26 10:22:26 PDT 2019
User: corrico
Dark Spectrum Present: No
Reference Spectrum Present: No
Number of Sampled Component Spectra: 1
Spectrometers: USB2+H06089
Integration Time (usec): 2000 (USB2+H06089)
Spectra Averaged: 20 (USB2+H06089)
Boxcar Smoothing: 2 (USB2+H06089)
Correct for Electrical Dark: No (USB2+H06089)
Strobe/Lamp Enabled: No (USB2+H06089)
Correct for Detector Non-linearity: No (USB2+H06089)
Correct for Stray Light: No (USB2+H06089)
Number of Pixels in Processed Spectrum: 2048
>>>>>Begin Processed Spectral Data<<<<<
339.70	1024.69
340.07	1024.69
340.45	991.40
340.82	970.85
341.19	949.60
341.57	925.56
341.94	911.69
342.31	904.76
342.69	899.94
343.06	894.88
343.43	895.61
343.81	900.68
344.18	902.44
344.55	907.80
344.93	911.64
345.30	916.86
345.67	925.99
346.04	935.28
346.42	940.10
346.79	948.06
347.16	957.65
347.54	961.23
347.91	971.60
348.28	984.10
348.65	995.99
349.03	1002.71
349.40	1011.95
349.77	1020.19
350.14	1024.87
350.52	1033.63
350.89	1041.16
351.26	1047.62
351.63	1052.02
352.01	1059.42
352.38	1059.70
352.75	1063.59
353.12	1067.87
353.50	1071.01
353.87	1070.21
354.24	1073.79
354.61	1075.64
354.98	1076.37
355.36	1080.65
355.73	1084.39
356.10	1089.54
356.47	1091.46
356.84	1091.93
357.22	1088.12
357.59	1084.51
357.96	1081.75
358.33	1078.85
358.70	1077.00
359.08	1077.61
359.45	1079.95
359.82	1077.14
360.19	1081.00
360.56	1085.03
360.94	1088.63
361.31	1089.22
361.68	1089.85
362.05	1086.03
362.42	1083.36
362.79	1081.05
363.16	1081.61
363.54	1078.31
363.91	1076.32
364.28	1077.58
364.65	1075.01
365.02	1075.34
365.39	1078.78
365.76	1077.65
366.14	1075.13
366.51	1075.94
366.88	1073.49
367.25	1073.51
367.62	1075.34
367.99	1075.76
368.36	1075.24
368.73	1074.45
369.10	1075.13
369.48	1075.15
369.85	1074.00
370.22	1071.82
370.59	1072.01
370.96	1071.22
371.33	1073.09
371.70	1076.48
372.07	1077.93
372.44	1077.77
372.81	1078.47
373.18	1075.48
373.55	1074.47
373.93	1074.03
374.30	1077.49
374.67	1079.71
375.04	1081.94
375.41	1079.17
375.78	1080.53
376.15	1079.17
376.52	1075.55
376.89	1075.59
377.26	1076.11
377.63	1075.69
378.00	1075.80
378.37	1079.10
378.74	1079.22
379.11	1079.81
379.48	1081.26
379.85	1079.43
380.22	1077.79
380.59	1078.75
380.96	1080.67
381.33	1079.88
381.70	1079.74
382.07	1079.95
382.44	1080.04
382.81	1079.62
383.18	1082.10
383.55	1080.46
383.92	1080.06
384.29	1081.19
384.66	1084.25
385.03	1082.57
385.40	1088.54
385.77	1087.20
386.14	1085.52
386.51	1081.28
386.88	1080.79
387.25	1079.97
387.62	1080.44
387.99	1082.33
388.36	1085.80
388.73	1085.00
389.10	1082.99
389.46	1083.86
389.83	1082.03
390.20	1080.06
390.57	1079.53
390.94	1083.08
391.31	1082.03
391.68	1080.98
392.05	1084.02
392.42	1083.15
392.79	1079.55
393.16	1080.27
393.53	1080.63
393.89	1077.49
394.26	1080.48
394.63	1082.78
395.00	1085.59
395.37	1085.47
395.74	1085.80
396.11	1087.06
396.48	1085.75
396.84	1088.70
397.21	1090.81
397.58	1088.09
397.95	1087.25
398.32	1088.16
398.69	1083.69
399.06	1083.86
399.42	1086.36
399.79	1088.26
400.16	1088.56
400.53	1088.58
400.90	1090.69
401.27	1091.74
401.64	1090.90
402.00	1091.63
402.37	1090.10
402.74	1086.15
403.11	1086.34
403.48	1085.56
403.84	1084.39
404.21	1087.06
404.58	1088.84
404.95	1089.26
405.32	1090.50
405.68	1089.89
406.05	1087.79
406.42	1087.41
406.79	1087.65
407.16	1086.64
407.52	1088.79
407.89	1093.94
408.26	1094.74
408.63	1095.60
408.99	1097.15
409.36	1096.68
409.73	1092.75
410.10	1093.87
410.47	1094.39
410.83	1094.08
411.20	1092.42
411.57	1094.13
411.94	1095.09
412.30	1094.41
412.67	1095.63
413.04	1096.73
413.40	1097.66
413.77	1100.17
414.14	1099.98
414.51	1101.74
414.87	1103.45
415.24	1103.59
415.61	1101.60
415.97	1104.03
416.34	1100.82
416.71	1100.66
417.08	1101.03
417.44	1100.36
417.81	1099.56
418.18	1101.50
418.54	1102.18
418.91	1103.28
419.28	1105.20
419.64	1108.71
420.01	1107.28
420.38	1108.43
420.74	1112.85
421.11	1115.55
421.48	1117.63
421.84	1122.15
422.21	1124.81
422.58	1126.01
422.94	1125.47
423.31	1127.58
423.68	1131.18
424.04	1137.99
424.41	1140.57
424.77	1147.73
425.14	1148.69
425.51	1153.39
425.87	1154.84
426.24	1158.28
426.61	1160.74
426.97	1167.95
427.34	1171.04
427.70	1172.58
428.07	1180.24
428.44	1185.57
428.80	1191.31
429.17	1200.84
429.53	1213.22
429.90	1221.27
430.27	1235.05
430.63	1245.59
431.00	1255.09
431.36	1262.79
431.73	1276.48
432.09	1285.42
432.46	1302.09
432.83	1317.77
433.19	1337.34
433.56	1354.68
433.92	1375.30
434.29	1393.65
434.65	1418.06
435.02	1443.31
435.38	1472.50
435.75	1501.95
436.11	1529.98
436.48	1559.03
436.84	1594.09
437.21	1628.92
437.57	1663.09
437.94	1704.28
438.30	1753.32
438.67	1799.12
439.03	1847.01
439.40	1904.38
439.76	1957.93
440.13	2016.00
440.49	2079.80
440.86	2142.15
441.22	2211.03
441.59	2287.10
441.95	2369.32
442.32	2453.63
442.68	2550.22
443.05	2648.18
443.41	2751.70
443.78	2849.63
444.14	2954.18
444.51	3068.04
444.87	3207.68
445.24	3352.98
445.60	3510.83
445.96	3668.49
446.33	3839.06
446.69	3994.12
447.06	4168.52
447.42	4346.75
447.79	4539.23
448.15	4766.43
448.51	5003.01
448.88	5267.47
449.24	5505.34
449.61	5794.86
449.97	6054.57
450.33	6338.19
450.70	6590.43
451.06	6924.15
451.43	7223.99
451.79	7588.86
452.15	7996.58
452.52	8445.52
452.88	8912.64
453.24	9431.77
453.61	10007.80
453.97	10556.92
454.34	11111.79
454.70	11747.57
455.06	12400.32
455.43	13029.72
455.79	13642.70
456.15	14354.13
456.52	15026.33
456.88	15792.55
457.24	16539.28
457.61	17377.07
457.97	18151.44
458.33	18928.66
458.70	19720.30
459.06	20475.22
459.42	21317.27
459.79	22098.80
460.15	23001.52
460.51	23858.11
460.88	24796.45
461.24	25592.75
461.60	26560.98
461.96	27443.32
462.33	28273.02
462.69	29033.01
463.05	29908.02
463.42	30612.17
463.78	31257.64
464.14	31792.48
464.50	32375.16
464.87	32835.14
465.23	33192.26
465.59	33542.76
465.95	33876.26
466.32	34155.58
466.68	34369.34
467.04	34522.41
467.40	34656.13
467.77	34788.83
468.13	34766.08
468.49	34687.72
468.85	34606.11
469.22	34426.40
469.58	34082.81
469.94	33841.17
470.30	33531.22
470.66	33121.11
471.03	32535.60
471.39	32150.51
471.75	31513.32
472.11	30903.01
472.47	30531.24
472.84	30230.59
473.20	29749.99
473.56	29473.92
473.92	29042.00
474.28	28534.31
474.65	28025.86
475.01	27539.21
475.37	26977.34
475.73	26532.90
476.09	25985.66
476.45	25474.48
476.81	24965.37
477.18	24435.10
477.54	23982.49
477.90	23645.96
478.26	23225.09
478.62	22895.05
478.98	22605.90
479.34	22291.75
479.71	21883.47
480.07	21531.50
480.43	21150.04
480.79	20761.93
481.15	20394.33
481.51	20067.00
481.87	19817.69
482.23	19535.07
482.59	19277.85
482.96	18993.07
483.32	18697.07
483.68	18319.84
484.04	17983.01
484.40	17615.95
484.76	17244.41
485.12	16872.76
485.48	16555.69
485.84	16203.13
486.20	15834.61
486.56	15470.24
486.92	15166.67
487.28	14802.93
487.64	14447.92
488.00	14121.69
488.37	13797.79
488.73	13432.92
489.09	13088.09
489.45	12771.32
489.81	12448.05
490.17	12146.28
490.53	11861.25
490.89	11560.54
491.25	11256.88
491.61	10954.18
491.97	10639.26
492.33	10304.14
492.69	10019.97
493.05	9718.14
493.41	9433.69
493.77	9156.69
494.13	8908.80
494.49	8646.03
494.85	8407.04
495.21	8180.99
495.57	7964.21
495.93	7751.64
496.29	7551.25
496.64	7369.93
497.00	7171.28
497.36	6970.37
497.72	6778.17
498.08	6598.27
498.44	6409.79
498.80	6238.44
499.16	6086.91
499.52	5937.78
499.88	5808.51
500.24	5695.09
500.60	5583.65
500.96	5471.24
501.32	5359.71
501.68	5223.98
502.03	5088.65
502.39	4958.78
502.75	4822.02
503.11	4691.46
503.47	4578.18
503.83	4461.51
504.19	4340.20
504.55	4238.69
504.91	4144.78
505.26	4047.07
505.62	3959.32
505.98	3872.72
506.34	3773.51
506.70	3681.15
507.06	3594.81
507.42	3506.08
507.78	3433.24
508.13	3363.12
508.49	3291.66
508.85	3226.43
509.21	3158.55
509.57	3087.59
509.93	3017.72
510.28	2948.35
510.64	2880.50
511.00	2813.39
511.36	2751.21
511.72	2699.64
512.07	2651.36
512.43	2603.21
512.79	2560.19
513.15	2515.14
513.51	2469.59
513.86	2422.27
514.22	2380.11
514.58	2337.12
514.94	2298.69
515.30	2260.21
515.65	2225.71
516.01	2192.61
516.37	2161.23
516.73	2135.65
517.08	2107.63
517.44	2078.21
517.80	2050.99
518.16	2027.63
518.51	1999.26
518.87	1970.52
519.23	1940.87
519.59	1910.20
519.94	1879.36
520.30	1854.10
520.66	1829.74
521.01	1808.16
521.37	1784.64
521.73	1763.13
522.09	1741.48
522.44	1721.86
522.80	1703.93
523.16	1685.79
523.51	1665.20
523.87	1647.81
524.23	1629.34
524.58	1611.08
524.94	1597.13
525.30	1581.73
525.65	1560.48
526.01	1542.65
526.37	1525.89
526.72	1512.15
527.08	1497.01
527.44	1485.75
527.79	1476.95
528.15	1466.44
528.51	1451.09
528.86	1445.14
529.22	1432.50
529.58	1422.02
529.93	1412.14
530.29	1403.39
530.65	1390.09
531.00	1384.05
531.36	1373.43
531.71	1363.22
532.07	1348.62
532.43	1341.29
532.78	1330.88
533.14	1323.62
533.49	1316.53
533.85	1315.52
534.21	1307.59
534.56	1305.04
534.92	1298.44
535.27	1293.08
535.63	1286.34
535.98	1282.22
536.34	1273.63
536.69	1267.96
537.05	1261.53
537.41	1258.18
537.76	1254.06
538.12	1249.03
538.47	1243.20
538.83	1238.71
539.18	1233.16
539.54	1226.79
539.89	1224.19
540.25	1223.54
540.60	1219.40
540.96	1215.07
541.31	1212.21
541.67	1208.91
542.02	1204.04
542.38	1204.04
542.73	1202.80
543.09	1197.46
543.44	1190.54
543.80	1187.61
544.15	1181.97
544.51	1177.80
544.86	1178.55
545.22	1181.36
545.57	1179.07
545.93	1175.70
546.28	1173.43
546.64	1168.82
546.99	1163.46
547.35	1158.82
547.70	1156.34
548.05	1157.84
548.41	1156.48
548.76	1155.52
549.12	1155.15
549.47	1154.56
549.83	1149.88
550.18	1149.11
550.53	1146.51
550.89	1146.91
551.24	1147.63
551.60	1147.71
551.95	1144.57
552.30	1143.14
552.66	1143.91
553.01	1138.41
553.37	1129.64
553.72	1133.03
554.07	1132.96
554.43	1129.10
554.78	1129.54
555.13	1131.98
555.49	1125.45
555.84	1125.28
556.19	1123.08
556.55	1122.12
556.90	1121.35
557.26	1122.45
557.61	1120.41
557.96	1120.06
558.32	1120.51
558.67	1122.68
559.02	1121.16
559.37	1120.34
559.73	1120.06
560.08	1120.95
560.43	1119.43
560.79	1116.93
561.14	1114.09
561.49	1113.02
561.85	1112.76
562.20	1112.04
562.55	1110.30
562.90	1108.66
563.26	1103.61
563.61	1098.58
563.96	1094.18
564.32	1095.86
564.67	1099.14
565.02	1102.91
565.37	1105.83
565.73	1106.98
566.08	1107.35
566.43	1104.24
566.78	1106.35
567.14	1104.41
567.49	1104.69
567.84	1103.38
568.19	1104.71
568.54	1100.92
568.90	1099.49
569.25	1101.15
569.60	1098.88
569.95	1097.31
570.31	1096.21
570.66	1095.04
571.01	1095.46
571.36	1098.06
571.71	1099.28
572.06	1098.46
572.42	1100.75
572.77	1100.03
573.12	1100.78
573.47	1100.78
573.82	1100.17
574.18	1099.58
574.53	1096.12
574.88	1096.21
575.23	1095.04
575.58	1098.69
575.93	1099.28
576.28	1100.12
576.64	1097.55
576.99	1096.82
577.34	1096.68
577.69	1097.50
578.04	1094.95
578.39	1094.55
578.74	1094.57
579.09	1091.34
579.44	1087.51
579.80	1088.77
580.15	1088.93
580.50	1087.79
580.85	1091.42
581.20	1092.35
581.55	1092.02
581.90	1091.84
582.25	1093.66
582.60	1090.71
582.95	1090.90
583.30	1089.85
583.65	1089.33
584.00	1085.17
584.35	1085.54
584.71	1087.16
585.06	1088.56
585.41	1088.30
585.76	1090.97
586.11	1091.86
586.46	1088.23
586.81	1089.03
587.16	1089.78
587.51	1087.93
587.86	1086.76
588.21	1087.37
588.56	1086.01
588.91	1086.80
589.26	1089.22
589.61	1090.50
589.96	1089.10
590.31	1090.29
590.66	1089.14
591.01	1089.94
591.36	1088.26
591.71	1089.99
592.06	1088.54
592.41	1088.37
592.76	1083.71
593.10	1083.81
593.45	1084.25
593.80	1083.34
594.15	1083.60
594.50	1088.89
594.85	1092.12
595.20	1091.34
595.55	1092.84
595.90	1091.20
596.25	1087.51
596.60	1082.10
596.95	1083.34
597.30	1083.32
597.64	1096.10
597.99	1096.92
598.34	1096.14
598.69	1097.88
599.04	1102.25
599.39	1090.41
599.74	1092.21
600.09	1089.73
600.44	1086.06
600.78	1081.77
601.13	1082.99
601.48	1080.72
601.83	1086.01
602.18	1088.30
602.53	1086.13
602.88	1085.63
603.22	1086.43
603.57	1087.25
603.92	1087.74
604.27	1088.37
604.62	1087.83
604.97	1087.09
605.31	1087.62
605.66	1086.71
606.01	1086.20
606.36	1086.80
606.71	1086.92
607.05	1082.90
607.40	1081.63
607.75	1082.92
608.10	1082.69
608.44	1084.11
608.79	1085.84
609.14	1084.35
609.49	1084.60
609.84	1081.77
610.18	1083.06
610.53	1082.38
610.88	1082.66
611.23	1084.86
611.57	1089.82
611.92	1088.40
612.27	1089.57
612.62	1093.57
612.96	1095.25
613.31	1090.39
613.66	1089.12
614.00	1090.71
614.35	1087.20
614.70	1082.54
615.05	1086.90
615.39	1088.33
615.74	1084.58
616.09	1084.14
616.43	1083.25
616.78	1081.28
617.13	1078.85
617.47	1081.23
617.82	1081.54
618.17	1082.59
618.51	1083.36
618.86	1085.00
619.21	1084.74
619.55	1086.73
619.90	1089.45
620.25	1088.65
620.59	1088.07
620.94	1085.82
621.29	1081.89
621.63	1080.63
621.98	1080.32
622.32	1080.84
622.67	1083.83
623.02	1086.92
623.36	1084.67
623.71	1081.56
624.05	1082.12
624.40	1080.74
624.75	1080.60
625.09	1080.74
625.44	1082.12
625.78	1079.57
626.13	1078.59
626.48	1078.14
626.82	1077.84
627.17	1080.84
627.51	1081.89
627.86	1085.49
628.20	1085.26
628.55	1085.26
628.89	1083.36
629.24	1084.18
629.58	1081.54
629.93	1082.52
630.28	1082.54
630.62	1082.54
630.97	1082.64
631.31	1080.86
631.66	1078.47
632.00	1080.98
632.35	1081.26
632.69	1081.23
633.04	1082.29
633.38	1083.90
633.73	1081.77
634.07	1083.27
634.42	1084.39
634.76	1086.06
635.11	1086.01
635.45	1087.95
635.79	1086.66
636.14	1088.14
636.48	1086.29
636.83	1086.59
637.17	1086.15
637.52	1086.87
637.86	1084.65
638.21	1084.72
638.55	1085.21
638.89	1085.68
639.24	1086.01
639.58	1086.27
639.93	1088.65
640.27	1085.96
640.61	1085.24
640.96	1084.44
641.30	1082.94
641.65	1080.16
641.99	1078.68
642.33	1077.96
642.68	1076.32
643.02	1077.02
643.37	1077.89
643.71	1078.64
644.05	1078.61
644.40	1080.25
644.74	1078.03
645.08	1081.07
645.43	1082.99
645.77	1082.90
646.11	1082.19
646.46	1083.95
646.80	1080.63
647.14	1081.33
647.49	1081.47
647.83	1080.72
648.17	1080.79
648.52	1079.50
648.86	1079.83
649.20	1078.87
649.55	1077.14
649.89	1075.85
650.23	1079.10
650.57	1080.60
650.92	1080.20
651.26	1083.32
651.60	1081.42
651.95	1081.63
652.29	1079.24
652.63	1080.23
652.97	1081.68
653.32	1085.66
653.66	1084.60
654.00	1085.59
654.34	1088.35
654.69	1087.30
655.03	1085.07
655.37	1083.08
655.71	1079.46
656.05	1077.49
656.40	1077.02
656.74	1079.31
657.08	1083.08
657.42	1085.59
657.76	1085.91
658.11	1085.82
658.45	1084.39
658.79	1084.18
659.13	1086.08
659.47	1084.53
659.82	1085.96
660.16	1087.86
660.50	1085.70
660.84	1086.78
661.18	1087.13
661.52	1084.37
661.87	1081.40
662.21	1079.90
662.55	1077.47
662.89	1077.82
663.23	1077.33
663.57	1078.68
663.91	1081.37
664.25	1082.12
664.60	1083.25
664.94	1085.12
665.28	1084.60
665.62	1084.28
665.96	1080.72
666.30	1079.20
666.64	1077.84
666.98	1080.13
667.32	1080.13
667.66	1081.07
668.01	1080.39
668.35	1080.41
668.69	1077.82
669.03	1076.86
669.37	1077.61
669.71	1074.89
670.05	1073.86
670.39	1076.62
670.73	1076.32
671.07	1077.42
671.41	1080.13
671.75	1081.30
672.09	1082.43
672.43	1081.91
672.77	1083.39
673.11	1087.37
673.45	1088.33
673.79	1085.77
674.13	1083.86
674.47	1083.04
674.81	1079.17
675.15	1083.11
675.49	1082.80
675.83	1084.39
676.17	1081.96
676.51	1082.08
676.85	1075.31
677.19	1075.43
677.53	1072.55
677.87	1075.05
678.21	1077.18
678.55	1079.22
678.89	1075.48
679.23	1079.85
679.57	1080.04
679.90	1077.56
680.24	1080.37
680.58	1082.80
680.92	1079.90
681.26	1080.18
681.60	1082.83
681.94	1083.67
682.28	1083.97
682.62	1087.34
682.96	1083.62
683.29	1085.73
683.63	1083.69
683.97	1086.31
684.31	1084.07
684.65	1089.45
684.99	1086.22
685.33	1085.33
685.67	1085.89
686.00	1090.64
686.34	1086.92
686.68	1084.96
687.02	1085.54
687.36	1082.29
687.70	1078.99
688.03	1080.95
688.37	1082.57
688.71	1081.49
689.05	1082.03
689.39	1080.72
689.72	1081.42
690.06	1080.93
690.40	1081.42
690.74	1082.08
691.08	1082.45
691.41	1082.97
691.75	1083.83
692.09	1082.43
692.43	1083.22
692.76	1084.35
693.10	1080.72
693.44	1082.26
693.78	1084.23
694.11	1084.49
694.45	1084.65
694.79	1084.37
695.13	1081.49
695.46	1080.48
695.80	1080.46
696.14	1080.32
696.48	1082.52
696.81	1084.81
697.15	1083.08
697.49	1081.61
697.82	1077.56
698.16	1074.33
698.50	1074.38
698.83	1078.38
699.17	1077.47
699.51	1082.57
699.84	1088.33
700.18	1085.17
700.52	1082.08
700.85	1083.60
701.19	1084.02
701.53	1079.60
701.86	1083.13
702.20	1086.71
702.54	1084.67
702.87	1083.88
703.21	1084.79
703.55	1082.43
703.88	1078.33
704.22	1080.04
704.55	1080.25
704.89	1079.41
705.23	1081.07
705.56	1082.19
705.90	1082.29
706.23	1083.81
706.57	1083.64
706.91	1081.87
707.24	1082.47
707.58	1078.36
707.91	1077.14
708.25	1078.17
708.58	1078.33
708.92	1077.54
709.26	1081.70
709.59	1080.46
709.93	1077.89
710.26	1078.50
710.60	1077.40
710.93	1076.27
711.27	1073.93
711.60	1077.51
711.94	1080.25
712.27	1082.01
712.61	1085.91
712.94	1088.51
713.28	1089.26
713.61	1085.99
713.95	1086.15
714.28	1081.58
714.62	1080.39
714.95	1076.37
715.29	1077.04
715.62	1077.61
715.96	1079.74
716.29	1081.61
716.63	1084.81
716.96	1086.03
717.29	1085.47
717.63	1083.11
717.96	1078.82
718.30	1077.93
718.63	1076.44
718.97	1074.21
719.30	1076.88
719.63	1079.24
719.97	1078.61
720.30	1078.96
720.64	1082.80
720.97	1079.92
721.30	1082.19
721.64	1083.04
721.97	1082.47
722.31	1082.83
722.64	1088.02
722.97	1086.99
723.31	1088.19
723.64	1090.97
723.97	1090.48
724.31	1087.67
724.64	1086.50
724.98	1084.70
725.31	1079.34
725.64	1077.93
725.98	1074.82
726.31	1074.98
726.64	1074.12
726.97	1079.50
727.31	1078.57
727.64	1080.02
727.97	1080.20
728.31	1078.47
728.64	1072.57
728.97	1072.83
729.31	1073.53
729.64	1072.32
729.97	1074.28
730.30	1076.44
730.64	1077.11
730.97	1079.55
731.30	1080.32
731.63	1079.67
731.97	1081.07
732.30	1080.20
732.63	1077.89
732.96	1075.73
733.30	1076.83
733.63	1076.53
733.96	1078.36
734.29	1077.30
734.63	1077.93
734.96	1079.20
735.29	1079.88
735.62	1079.17
735.95	1080.93
736.29	1080.91
736.62	1079.53
736.95	1077.63
737.28	1074.49
737.61	1073.37
737.94	1076.53
738.28	1076.30
738.61	1074.45
738.94	1078.05
739.27	1076.62
739.60	1076.08
739.93	1077.84
740.27	1079.38
740.60	1079.03
740.93	1080.41
741.26	1080.70
741.59	1079.08
741.92	1080.53
742.25	1078.03
742.58	1078.64
742.91	1076.90
743.25	1079.20
743.58	1079.78
743.91	1083.76
744.24	1084.07
744.57	1085.54
744.90	1081.87
745.23	1078.52
745.56	1076.27
745.89	1077.40
746.22	1077.18
746.55	1078.54
746.88	1082.08
747.21	1081.80
747.54	1078.31
747.87	1079.17
748.20	1083.50
748.53	1085.73
748.87	1087.16
749.20	1088.91
749.53	1085.00
749.86	1084.51
750.19	1079.20
750.52	1076.74
750.85	1077.75
751.18	1079.17
751.51	1075.22
751.84	1075.55
752.16	1077.63
752.49	1079.92
752.82	1081.00
753.15	1081.66
753.48	1084.79
753.81	1082.29
754.14	1079.62
754.47	1081.14
754.80	1083.48
755.13	1083.22
755.46	1086.13
755.79	1088.75
756.12	1085.05
756.45	1080.65
756.78	1080.02
757.11	1080.25
757.43	1075.64
757.76	1075.36
758.09	1076.79
758.42	1074.03
758.75	1072.95
759.08	1073.81
759.41	1075.13
759.74	1077.11
760.07	1079.27
760.39	1078.61
760.72	1078.19
761.05	1080.16
761.38	1080.06
761.71	1079.17
762.04	1079.13
762.36	1083.04
762.69	1083.55
763.02	1084.07
763.35	1082.90
763.68	1083.74
764.01	1080.23
764.33	1078.87
764.66	1078.80
764.99	1084.79
765.32	1085.63
765.65	1085.66
765.97	1086.90
766.30	1084.46
766.63	1079.99
766.96	1076.34
767.28	1078.80
767.61	1077.61
767.94	1078.21
768.27	1078.75
768.59	1083.69
768.92	1080.84
769.25	1082.26
769.58	1083.13
769.90	1083.50
770.23	1078.78
770.56	1078.00
770.89	1076.83
771.21	1075.08
771.54	1073.49
771.87	1076.90
772.19	1077.65
772.52	1079.50
772.85	1077.40
773.17	1079.01
773.50	1076.15
773.83	1077.04
774.15	1076.41
774.48	1079.24
774.81	1078.89
775.13	1078.85
775.46	1079.90
775.79	1080.51
776.11	1080.79
776.44	1080.32
776.77	1083.06
777.09	1080.63
777.42	1081.54
777.74	1080.16
778.07	1080.72
778.40	1079.01
778.72	1080.56
779.05	1077.35
779.37	1077.91
779.70	1079.95
780.03	1082.80
780.35	1083.74
780.68	1083.41
781.00	1083.76
781.33	1083.71
781.65	1080.27
781.98	1079.90
782.31	1081.37
782.63	1080.58
782.96	1076.37
783.28	1077.56
783.61	1079.62
783.93	1079.57
784.26	1081.07
784.58	1084.32
784.91	1080.09
785.23	1076.72
785.56	1078.00
785.88	1078.40
786.21	1076.34
786.53	1080.46
786.86	1080.44
787.18	1077.91
787.51	1075.69
787.83	1078.50
788.16	1078.05
788.48	1077.30
788.81	1075.71
789.13	1075.87
789.46	1073.42
789.78	1070.77
790.10	1070.63
790.43	1069.37
790.75	1070.96
791.08	1072.27
791.40	1072.22
791.73	1072.15
792.05	1074.63
792.37	1074.42
792.70	1076.88
793.02	1079.71
793.35	1079.76
793.67	1083.39
793.99	1082.94
794.32	1080.79
794.64	1078.45
794.96	1080.74
795.29	1079.15
795.61	1079.15
795.93	1075.31
796.26	1077.89
796.58	1077.89
796.91	1077.44
797.23	1075.92
797.55	1078.52
797.87	1078.38
798.20	1078.03
798.52	1077.51
798.84	1074.68
799.17	1075.55
799.49	1074.31
799.81	1076.72
800.14	1076.53
800.46	1085.42
800.78	1085.96
801.10	1089.00
801.43	1085.77
801.75	1087.18
802.07	1080.39
802.40	1076.39
802.72	1073.11
803.04	1072.88
803.36	1072.20
803.69	1073.07
804.01	1077.11
804.33	1078.57
804.65	1080.60
804.97	1081.00
805.30	1082.10
805.62	1080.79
805.94	1081.09
806.26	1081.26
806.58	1079.15
806.91	1078.87
807.23	1078.73
807.55	1079.64
807.87	1079.10
808.19	1080.25
808.52	1081.61
808.84	1081.12
809.16	1080.81
809.48	1079.71
809.80	1080.53
810.12	1078.50
810.44	1076.88
810.77	1074.42
811.09	1073.72
811.41	1070.98
811.73	1071.85
812.05	1077.72
812.37	1077.02
812.69	1075.43
813.01	1078.57
813.33	1078.80
813.66	1075.10
813.98	1076.74
814.30	1079.83
814.62	1077.16
814.94	1079.53
815.26	1080.60
815.58	1082.99
815.90	1081.14
816.22	1082.99
816.54	1079.13
816.86	1078.50
817.18	1074.03
817.50	1075.43
817.82	1072.78
818.14	1078.73
818.46	1080.06
818.78	1080.39
819.10	1081.23
819.42	1082.90
819.74	1076.79
820.06	1074.98
820.38	1078.96
820.70	1076.69
821.02	1077.96
821.34	1078.87
821.66	1077.49
821.98	1078.71
822.30	1079.64
822.62	1078.12
822.94	1078.26
823.26	1078.14
823.58	1075.80
823.90	1077.25
824.22	1080.25
824.54	1078.26
824.86	1080.58
825.18	1078.71
825.50	1075.55
825.81	1074.66
826.13	1075.27
826.45	1070.82
826.77	1068.95
827.09	1071.68
827.41	1070.16
827.73	1072.08
828.05	1076.20
828.36	1078.21
828.68	1077.02
829.00	1076.30
829.32	1077.21
829.64	1079.85
829.96	1080.13
830.28	1079.22
830.59	1078.68
830.91	1076.53
831.23	1072.11
831.55	1070.49
831.87	1070.49
832.19	1072.34
832.50	1074.75
832.82	1076.60
833.14	1078.89
833.46	1080.18
833.78	1081.23
834.09	1080.67
834.41	1081.42
834.73	1078.66
835.05	1079.41
835.36	1076.18
835.68	1075.34
836.00	1075.92
836.32	1079.10
836.63	1077.07
836.95	1079.10
837.27	1077.70
837.59	1076.20
837.90	1074.70
838.22	1075.71
838.54	1074.75
838.85	1074.52
839.17	1074.31
839.49	1075.45
839.80	1074.98
840.12	1075.45
840.44	1080.09
840.76	1082.17
841.07	1081.14
841.39	1079.01
841.71	1080.16
842.02	1078.45
842.34	1079.13
842.65	1080.04
842.97	1079.95
843.29	1077.11
843.60	1076.30
843.92	1070.91
844.24	1073.65
844.55	1076.15
844.87	1076.83
845.18	1078.45
845.50	1081.12
845.82	1079.29
846.13	1079.69
846.45	1079.64
846.76	1079.27
847.08	1076.37
847.40	1074.91
847.71	1075.55
848.03	1076.25
848.34	1073.95
848.66	1078.45
848.97	1079.85
849.29	1077.51
849.60	1076.65
849.92	1077.68
850.24	1076.62
850.55	1072.46
850.87	1070.02
851.18	1069.23
851.50	1068.92
851.81	1069.27
852.13	1071.17
852.44	1075.29
852.76	1076.15
853.07	1076.20
853.39	1076.11
853.70	1074.33
854.01	1076.93
854.33	1078.94
854.64	1078.54
854.96	1078.05
855.27	1082.19
855.59	1077.51
855.90	1074.45
856.22	1072.95
856.53	1073.16
856.84	1070.77
857.16	1073.39
857.47	1075.05
857.79	1075.41
858.10	1073.09
858.41	1075.24
858.73	1076.18
859.04	1074.84
859.36	1077.79
859.67	1080.79
859.98	1080.06
860.30	1078.43
860.61	1080.53
860.92	1080.32
861.24	1079.46
861.55	1078.87
861.87	1077.89
862.18	1077.98
862.49	1078.50
862.81	1079.90
863.12	1081.37
863.43	1088.26
863.74	1088.61
864.06	1088.09
864.37	1088.28
864.68	1088.00
865.00	1083.22
865.31	1081.89
865.62	1081.23
865.94	1077.86
866.25	1074.82
866.56	1074.35
866.87	1074.49
867.19	1076.69
867.50	1077.86
867.81	1079.48
868.12	1080.74
868.44	1083.29
868.75	1081.00
869.06	1079.76
869.37	1077.09
869.68	1076.60
870.00	1072.25
870.31	1072.60
870.62	1071.05
870.93	1075.20
871.24	1073.46
871.56	1075.15
871.87	1076.06
872.18	1078.52
872.49	1078.33
872.80	1081.00
873.12	1084.07
873.43	1080.25
873.74	1083.13
874.05	1082.05
874.36	1078.17
874.67	1075.08
874.98	1076.06
875.29	1071.52
875.61	1072.27
875.92	1074.19
876.23	1074.07
876.54	1076.04
876.85	1078.87
877.16	1080.20
877.47	1079.60
877.78	1080.79
878.09	1081.37
878.40	1079.24
878.72	1077.16
879.03	1074.91
879.34	1070.54
879.65	1069.11
879.96	1069.77
880.27	1069.02
880.58	1073.58
880.89	1078.36
881.20	1078.87
881.51	1079.41
881.82	1082.71
882.13	1079.95
882.44	1076.06
882.75	1080.02
883.06	1082.38
883.37	1080.60
883.68	1082.94
883.99	1087.51
884.30	1082.31
884.61	1078.57
884.92	1077.70
885.23	1076.08
885.54	1074.82
885.85	1078.00
886.16	1080.25
886.47	1078.96
886.78	1077.89
887.08	1078.71
887.39	1075.03
887.70	1074.59
888.01	1075.73
888.32	1076.55
888.63	1075.80
888.94	1076.83
889.25	1075.94
889.56	1077.44
889.87	1077.84
890.17	1077.96
890.48	1078.75
890.79	1077.44
891.10	1077.58
891.41	1077.77
891.72	1073.02
892.03	1072.74
892.34	1070.94
892.64	1069.65
892.95	1067.64
893.26	1073.23
893.57	1072.20
893.88	1073.70
894.18	1070.96
894.49	1071.78
894.80	1071.61
895.11	1072.27
895.42	1075.90
895.72	1080.53
896.03	1082.36
896.34	1081.19
896.65	1081.02
896.96	1079.76
897.26	1076.83
897.57	1075.15
897.88	1077.54
898.19	1076.15
898.49	1074.05
898.80	1076.51
899.11	1075.87
899.41	1072.20
899.72	1075.31
900.03	1077.04
900.34	1077.25
900.64	1078.82
900.95	1078.26
901.26	1080.30
901.56	1079.22
901.87	1078.75
902.18	1078.59
902.48	1080.56
902.79	1077.18
903.10	1078.38
903.40	1075.87
903.71	1075.59
904.02	1074.40
904.32	1073.67
904.63	1073.46
904.94	1077.65
905.24	1077.68
905.55	1078.78
905.85	1080.27
906.16	1078.80
906.47	1074.10
906.77	1074.33
907.08	1073.04
907.38	1073.28
907.69	1075.45
908.00	1077.61
908.30	1077.96
908.61	1080.32
908.91	1078.31
909.22	1075.20
909.52	1075.57
909.83	1075.66
910.14	1074.75
910.44	1075.97
910.75	1080.23
911.05	1084.25
911.36	1082.73
911.66	1082.15
911.97	1080.79
912.27	1081.63
912.58	1079.83
912.88	1080.09
913.19	1082.54
913.49	1085.80
913.80	1081.91
914.10	1081.35
914.41	1081.82
914.71	1078.21
915.01	1075.97
915.32	1076.97
915.62	1077.21
915.93	1078.52
916.23	1080.65
916.54	1081.35
916.84	1081.23
917.15	1077.86
917.45	1077.00
917.75	1074.42
918.06	1074.61
918.36	1076.55
918.67	1075.85
918.97	1077.68
919.27	1079.64
919.58	1078.78
919.88	1078.28
920.18	1080.41
920.49	1079.53
920.79	1081.68
921.10	1082.50
921.40	1080.34
921.70	1077.42
922.01	1074.54
922.31	1071.94
922.61	1071.24
922.92	1071.97
923.22	1075.64
923.52	1075.43
923.82	1076.06
924.13	1076.79
924.43	1078.54
924.73	1079.92
925.04	1084.11
925.34	1080.67
925.64	1081.77
925.94	1080.20
926.25	1078.87
926.55	1077.79
926.85	1079.85
927.15	1079.90
927.46	1079.55
927.76	1079.06
928.06	1076.76
928.36	1077.72
928.67	1075.13
928.97	1073.95
929.27	1071.24
929.57	1075.78
929.87	1079.31
930.18	1078.61
930.48	1082.05
930.78	1084.00
931.08	1081.33
931.38	1080.16
931.69	1082.03
931.99	1077.65
932.29	1076.32
932.59	1076.15
932.89	1074.17
933.19	1074.68
933.49	1074.70
933.80	1077.72
934.10	1076.97
934.40	1076.18
934.70	1074.80
935.00	1076.41
935.30	1075.48
935.60	1074.59
935.90	1077.21
936.20	1077.86
936.50	1076.65
936.81	1076.39
937.11	1077.25
937.41	1076.08
937.71	1075.36
938.01	1076.86
938.31	1077.91
938.61	1078.24
938.91	1077.84
939.21	1078.26
939.51	1078.12
939.81	1074.26
940.11	1073.16
940.41	1072.41
940.71	1071.45
941.01	1072.20
941.31	1073.53
941.61	1074.10
941.91	1074.35
942.21	1075.99
942.51	1075.97
942.81	1077.65
943.11	1078.57
943.41	1080.20
943.71	1078.12
944.01	1076.83
944.31	1076.48
944.61	1077.63
944.90	1076.81
945.20	1080.04
945.50	1086.10
945.80	1083.25
946.10	1082.92
946.40	1084.79
946.70	1082.38
947.00	1077.89
947.30	1081.89
947.60	1081.05
947.89	1075.69
948.19	1077.21
948.49	1077.91
948.79	1074.82
949.09	1073.70
949.39	1072.67
949.69	1071.64
949.98	1069.91
950.28	1072.97
950.58	1076.08
950.88	1078.36
951.18	1077.65
951.48	1079.10
951.77	1075.87
952.07	1074.19
952.37	1073.23
952.67	1073.00
952.97	1072.34
953.26	1072.36
953.56	1070.54
953.86	1071.43
954.16	1071.05
954.45	1070.09
954.75	1070.77
955.05	1072.18
955.35	1074.45
955.64	1078.31
955.94	1082.36
956.24	1084.37
956.54	1083.11
956.83	1084.58
957.13	1082.15
957.43	1076.76
957.72	1076.79
958.02	1076.08
958.32	1069.37
958.61	1070.44
958.91	1073.02
959.21	1070.35
959.50	1069.20
959.80	1071.80
960.10	1072.53
960.39	1075.57
960.69	1077.79
960.99	1081.21
961.28	1080.60
961.58	1080.86
961.87	1078.47
962.17	1079.67
962.47	1079.22
962.76	1082.40
963.06	1078.14
963.36	1076.74
963.65	1077.16
963.95	1075.97
964.24	1075.43
964.54	1079.83
964.83	1082.12
965.13	1079.67
965.42	1080.86
965.72	1081.66
966.02	1081.26
966.31	1079.64
966.61	1080.30
966.90	1080.16
967.20	1076.41
967.49	1075.41
967.79	1076.08
968.08	1077.40
968.38	1077.47
968.67	1080.27
968.97	1079.85
969.26	1080.23
969.56	1077.49
969.85	1076.44
970.15	1076.37
970.44	1075.03
970.74	1075.34
971.03	1077.89
971.32	1081.35
971.62	1079.85
971.91	1080.37
972.21	1077.70
972.50	1077.14
972.80	1074.24
973.09	1074.96
973.38	1075.34
973.68	1077.86
973.97	1077.07
974.27	1074.82
974.56	1074.07
974.85	1073.23
975.15	1070.51
975.44	1072.06
975.73	1075.59
976.03	1077.18
976.32	1078.12
976.61	1078.92
976.91	1074.89
977.20	1074.75
977.49	1075.10
977.79	1073.23
978.08	1073.49
978.37	1076.06
978.67	1074.40
978.96	1074.87
979.25	1076.44
979.55	1076.74
979.84	1075.22
980.13	1077.14
980.42	1076.72
980.72	1077.65
981.01	1076.72
981.30	1078.82
981.59	1078.52
981.89	1077.56
982.18	1080.39
982.47	1079.71
982.76	1081.73
983.06	1084.14
983.35	1086.57
983.64	1086.01
983.93	1089.47
984.22	1088.02
984.52	1085.31
984.81	1083.71
985.10	1084.28
985.39	1082.29
985.68	1082.69
985.97	1082.12
986.27	1080.27
986.56	1075.31
986.85	1073.72
987.14	1074.94
987.43	1076.76
987.72	1077.49
988.01	1079.08
988.31	1079.57
988.60	1075.94
988.89	1075.48
989.18	1075.90
989.47	1077.02
989.76	1081.14
990.05	1083.20
990.34	1083.18
990.63	1083.46
990.92	1079.62
991.21	1076.13
991.51	1071.26
991.80	1070.42
992.09	1069.74
992.38	1071.19
992.67	1073.49
992.96	1076.58
993.25	1077.18
993.54	1078.40
993.83	1080.18
994.12	1076.65
994.41	1080.53
994.70	1078.10
994.99	1077.44
995.28	1076.23
995.57	1079.34
995.86	1076.15
996.15	1078.33
996.44	1077.79
996.73	1077.91
997.02	1079.88
997.31	1080.95
997.59	1079.34
997.88	1079.48
998.17	1081.47
998.46	1078.61
998.75	1077.79
999.04	1078.87
999.33	1078.40
999.62	1077.00
999.91	1077.30
1000.20	1078.54
1000.49	1075.83
1000.77	1075.10
1001.06	1077.86
1001.35	1076.60
1001.64	1076.27
1001.93	1080.16
1002.22	1081.66
1002.51	1077.42
1002.79	1077.33
1003.08	1075.92
1003.37	1075.24
1003.66	1076.53
1003.95	1079.29
1004.23	1079.08
1004.52	1078.75
1004.81	1079.10
1005.10	1077.33
1005.39	1075.20
1005.67	1075.05
1005.96	1073.37
1006.25	1071.61
1006.54	1075.41
1006.83	1076.27
1007.11	1077.54
1007.40	1080.56
1007.69	1081.07
1007.97	1076.74
1008.26	1076.32
1008.55	1077.93
1008.84	1076.74
1009.12	1078.36
1009.41	1079.62
1009.70	1080.70
1009.98	1077.54
1010.27	1079.13
1010.56	1078.07
1010.85	1080.06
1011.13	1079.99
1011.42	1081.30
1011.71	1080.56
1011.99	1080.53
1012.28	1078.73
1012.56	1077.77
1012.85	1078.94
1013.14	1078.26
1013.42	1077.58
1013.71	1076.13
1014.00	1076.25
1014.28	1074.21
1014.57	1076.11
1014.85	1078.24
1015.14	1080.06
1015.43	1081.77
1015.71	1082.43
1016.00	1078.99
1016.28	1077.00
1016.57	1075.59
1016.85	1074.31
1017.14	1075.13
1017.43	1073.46
1017.71	1072.78
1018.00	1071.52
1018.28	1070.14
1018.57	1068.83
1018.85	1072.27
1019.14	1071.52
1019.42	1073.95
1019.71	1077.00
1019.99	1076.44
1020.28	1075.66
1020.56	1075.08
1020.85	1073.04
1021.13	1072.41
1021.42	1072.78
1021.70	1072.22
1021.99	1075.17
1022.27	1073.93
1022.55	1080.51
1022.84	1063.66
>>>>>End Processed Spectral Data<<<<<
