SpectraSuite Data File
++++++++++++++++++++++++++++++++++++
Date: Mon Aug 26 10:22:09 PDT 2019
User: corrico
Dark Spectrum Present: No
Reference Spectrum Present: No
Number of Sampled Component Spectra: 1
Spectrometers: USB2+H06089
Integration Time (usec): 2000 (USB2+H06089)
Spectra Averaged: 20 (USB2+H06089)
Boxcar Smoothing: 2 (USB2+H06089)
Correct for Electrical Dark: No (USB2+H06089)
Strobe/Lamp Enabled: No (USB2+H06089)
Correct for Detector Non-linearity: No (USB2+H06089)
Correct for Stray Light: No (USB2+H06089)
Number of Pixels in Processed Spectrum: 2048
>>>>>Begin Processed Spectral Data<<<<<
339.70	1028.31
340.07	1028.31
340.45	993.39
340.82	971.02
341.19	945.81
341.57	918.10
341.94	907.14
342.31	898.25
342.69	893.80
343.06	891.39
343.43	893.08
343.81	894.04
344.18	898.84
344.55	901.50
344.93	908.39
345.30	913.77
345.67	924.58
346.04	929.57
346.42	939.16
346.79	946.56
347.16	953.98
347.54	959.39
347.91	971.53
348.28	981.69
348.65	991.52
349.03	1003.55
349.40	1013.19
349.77	1018.37
350.14	1027.35
350.52	1035.76
350.89	1040.04
351.26	1047.32
351.63	1054.15
352.01	1058.55
352.38	1060.59
352.75	1065.04
353.12	1068.10
353.50	1073.23
353.87	1075.10
354.24	1077.93
354.61	1081.28
354.98	1081.84
355.36	1080.11
355.73	1081.33
356.10	1084.18
356.47	1084.51
356.84	1084.32
357.22	1085.26
357.59	1085.66
357.96	1085.19
358.33	1084.04
358.70	1086.97
359.08	1086.17
359.45	1082.38
359.82	1078.28
360.19	1078.54
360.56	1073.18
360.94	1073.30
361.31	1074.45
361.68	1075.17
362.05	1076.06
362.42	1077.77
362.79	1075.15
363.16	1073.56
363.54	1074.87
363.91	1075.29
364.28	1073.93
364.65	1077.09
365.02	1079.67
365.39	1076.58
365.76	1073.86
366.14	1073.98
366.51	1071.12
366.88	1066.89
367.25	1070.05
367.62	1071.33
367.99	1073.23
368.36	1075.20
368.73	1077.00
369.10	1076.46
369.48	1076.44
369.85	1074.82
370.22	1074.40
370.59	1077.18
370.96	1074.68
371.33	1073.56
371.70	1073.93
372.07	1075.27
372.44	1073.70
372.81	1077.56
373.18	1077.09
373.55	1076.55
373.93	1074.82
374.30	1076.95
374.67	1073.84
375.04	1074.00
375.41	1075.29
375.78	1077.91
376.15	1077.04
376.52	1078.64
376.89	1080.48
377.26	1080.56
377.63	1080.37
378.00	1078.66
378.37	1077.86
378.74	1075.34
379.11	1075.64
379.48	1075.03
379.85	1076.81
380.22	1079.67
380.59	1082.83
380.96	1083.11
381.33	1082.22
381.70	1080.60
382.07	1081.16
382.44	1081.00
382.81	1079.10
383.18	1077.75
383.55	1077.54
383.92	1076.53
384.29	1079.01
384.66	1081.80
385.03	1083.25
385.40	1086.55
385.77	1087.18
386.14	1086.48
386.51	1087.60
386.88	1087.46
387.25	1083.15
387.62	1081.96
387.99	1082.64
388.36	1082.94
388.73	1085.24
389.10	1087.79
389.46	1088.33
389.83	1086.99
390.20	1086.71
390.57	1086.08
390.94	1086.27
391.31	1085.52
391.68	1085.40
392.05	1082.87
392.42	1082.61
392.79	1082.26
393.16	1082.38
393.53	1084.32
393.89	1087.06
394.26	1086.48
394.63	1089.59
395.00	1091.91
395.37	1089.45
395.74	1088.89
396.11	1089.38
396.48	1085.94
396.84	1086.94
397.21	1088.84
397.58	1089.89
397.95	1092.87
398.32	1096.14
398.69	1096.31
399.06	1094.41
399.42	1093.66
399.79	1092.77
400.16	1093.71
400.53	1093.43
400.90	1093.36
401.27	1092.00
401.64	1091.77
402.00	1087.34
402.37	1085.12
402.74	1087.27
403.11	1088.28
403.48	1086.62
403.84	1089.19
404.21	1090.92
404.58	1088.72
404.95	1089.75
405.32	1086.78
405.68	1086.76
406.05	1086.87
406.42	1087.83
406.79	1087.53
407.16	1091.09
407.52	1091.56
407.89	1091.93
408.26	1096.26
408.63	1097.10
408.99	1099.89
409.36	1100.45
409.73	1099.61
410.10	1097.90
410.47	1099.98
410.83	1102.18
411.20	1101.46
411.57	1102.21
411.94	1102.79
412.30	1098.25
412.67	1095.00
413.04	1096.66
413.40	1098.23
413.77	1097.66
414.14	1101.78
414.51	1105.15
414.87	1106.86
415.24	1109.39
415.61	1110.40
415.97	1113.60
416.34	1111.92
416.71	1111.03
417.08	1108.92
417.44	1108.08
417.81	1104.97
418.18	1105.41
418.54	1104.22
418.91	1105.95
419.28	1109.86
419.64	1109.67
420.01	1109.37
420.38	1113.60
420.74	1112.62
421.11	1113.21
421.48	1119.38
421.84	1126.87
422.21	1125.82
422.58	1129.52
422.94	1132.16
423.31	1133.62
423.68	1134.86
424.04	1144.17
424.41	1147.68
424.77	1149.88
425.14	1153.67
425.51	1157.89
425.87	1158.92
426.24	1162.57
426.61	1169.40
426.97	1176.73
427.34	1180.26
427.70	1191.31
428.07	1200.30
428.44	1210.55
428.80	1220.73
429.17	1234.40
429.53	1244.21
429.90	1260.92
430.27	1270.26
430.63	1280.90
431.00	1295.02
431.36	1312.10
431.73	1325.38
432.09	1344.19
432.46	1358.42
432.83	1377.22
433.19	1394.75
433.56	1418.25
433.92	1441.58
434.29	1471.31
434.65	1498.41
435.02	1526.97
435.38	1557.49
435.75	1588.94
436.11	1627.73
436.48	1669.22
436.84	1712.76
437.21	1757.44
437.57	1806.94
437.94	1854.94
438.30	1904.24
438.67	1958.49
439.03	2025.73
439.40	2096.51
439.76	2163.38
440.13	2238.79
440.49	2327.78
440.86	2403.52
441.22	2493.68
441.59	2589.57
441.95	2691.17
442.32	2789.22
442.68	2908.58
443.05	3025.70
443.41	3153.99
443.78	3290.23
444.14	3430.52
444.51	3566.41
444.87	3728.59
445.24	3897.67
445.60	4075.57
445.96	4262.16
446.33	4481.54
446.69	4683.51
447.06	4901.50
447.42	5124.84
447.79	5356.06
448.15	5616.58
448.51	5900.33
448.88	6218.31
449.24	6524.92
449.61	6881.90
449.97	7242.34
450.33	7626.00
450.70	7990.87
451.06	8420.71
451.43	8840.86
451.79	9293.42
452.15	9788.75
452.52	10321.69
452.88	10874.41
453.24	11492.69
453.61	12212.26
453.97	12906.67
454.34	13610.29
454.70	14441.88
455.06	15240.47
455.43	15997.61
455.79	16694.50
456.15	17511.77
456.52	18241.78
456.88	19169.01
457.24	20060.68
457.61	21199.71
457.97	22272.47
458.33	23391.64
458.70	24444.06
459.06	25461.66
459.42	26458.54
459.79	27370.67
460.15	28440.90
460.51	29438.93
460.88	30548.39
461.24	31560.16
461.60	32714.74
461.96	33763.51
462.33	34818.75
462.69	35846.87
463.05	36965.60
463.42	37993.47
463.78	38940.94
464.14	39688.46
464.50	40423.65
464.87	40953.55
465.23	41289.37
465.59	41673.36
465.95	42015.94
466.32	42259.57
466.68	42473.87
467.04	42646.99
467.40	42657.97
467.77	42738.46
468.13	42655.21
468.49	42511.95
468.85	42386.63
469.22	42253.78
469.58	41993.54
469.94	41858.42
470.30	41645.88
470.66	41311.13
471.03	40803.82
471.39	40460.05
471.75	39731.18
472.11	39020.62
472.47	38508.30
472.84	37988.63
473.20	37283.59
473.56	36909.64
473.92	36339.88
474.28	35692.09
474.65	35053.43
475.01	34345.56
475.37	33481.18
475.73	32782.50
476.09	32081.25
476.45	31401.31
476.81	30837.82
477.18	30298.09
477.54	29808.15
477.90	29348.16
478.26	28793.79
478.62	28281.70
478.98	27836.58
479.34	27398.36
479.71	26828.93
480.07	26389.73
480.43	25936.27
480.79	25449.74
481.15	24974.45
481.51	24614.57
481.87	24284.53
482.23	23924.75
482.59	23598.87
482.96	23290.23
483.32	22981.46
483.68	22580.86
484.04	22229.59
484.40	21819.22
484.76	21388.87
485.12	20923.38
485.48	20489.33
485.84	19997.21
486.20	19557.75
486.56	19100.90
486.92	18724.89
487.28	18338.61
487.64	17929.35
488.00	17547.23
488.37	17169.12
488.73	16717.91
489.09	16250.32
489.45	15827.55
489.81	15367.14
490.17	14930.79
490.53	14531.12
490.89	14127.17
491.25	13718.68
491.61	13328.41
491.97	12918.17
492.33	12513.39
492.69	12153.91
493.05	11814.30
493.41	11488.61
493.77	11176.55
494.13	10883.91
494.49	10588.79
494.85	10307.51
495.21	10028.96
495.57	9775.13
495.93	9487.62
496.29	9233.46
496.64	9003.43
497.00	8754.52
497.36	8490.64
497.72	8268.93
498.08	8035.32
498.44	7802.71
498.80	7590.43
499.16	7387.90
499.52	7183.88
499.88	7007.89
500.24	6836.56
500.60	6678.95
500.96	6530.98
501.32	6370.63
501.68	6204.99
502.03	6020.75
502.39	5852.53
502.75	5676.88
503.11	5527.06
503.47	5378.25
503.83	5248.49
504.19	5115.22
504.55	4998.10
504.91	4879.17
505.26	4765.68
505.62	4651.39
505.98	4535.40
506.34	4418.51
506.70	4300.36
507.06	4194.92
507.42	4097.62
507.78	4004.07
508.13	3911.57
508.49	3833.87
508.85	3749.02
509.21	3658.82
509.57	3579.87
509.93	3497.49
510.28	3410.93
510.64	3329.69
511.00	3256.60
511.36	3178.89
511.72	3109.85
512.07	3049.76
512.43	2985.59
512.79	2924.31
513.15	2864.82
513.51	2807.87
513.86	2747.70
514.22	2697.58
514.58	2642.02
514.94	2593.36
515.30	2543.76
515.65	2501.63
516.01	2460.53
516.37	2425.75
516.73	2388.42
517.08	2353.06
517.44	2313.99
517.80	2267.04
518.16	2228.85
518.51	2191.14
518.87	2158.40
519.23	2126.10
519.59	2101.73
519.94	2068.40
520.30	2040.95
520.66	2009.30
521.01	1976.58
521.37	1950.58
521.73	1920.25
522.09	1890.12
522.44	1868.19
522.80	1849.98
523.16	1823.60
523.51	1803.13
523.87	1784.49
524.23	1765.58
524.58	1740.35
524.94	1720.29
525.30	1700.45
525.65	1680.76
526.01	1659.09
526.37	1643.81
526.72	1627.16
527.08	1614.01
527.44	1596.36
527.79	1580.35
528.15	1568.07
528.51	1553.37
528.86	1535.49
529.22	1522.89
529.58	1510.25
529.93	1493.59
530.29	1479.52
530.65	1469.67
531.00	1457.97
531.36	1443.29
531.71	1427.07
532.07	1416.84
532.43	1404.93
532.78	1393.74
533.14	1385.55
533.49	1380.89
533.85	1369.56
534.21	1361.49
534.56	1355.61
534.92	1346.46
535.27	1338.37
535.63	1331.41
535.98	1324.30
536.34	1316.43
536.69	1310.68
537.05	1306.28
537.41	1300.40
537.76	1292.09
538.12	1282.31
538.47	1275.19
538.83	1266.79
539.18	1260.52
539.54	1255.65
539.89	1253.78
540.25	1251.44
540.60	1246.62
540.96	1245.19
541.31	1242.94
541.67	1237.82
542.02	1234.73
542.38	1232.03
542.73	1227.00
543.09	1219.54
543.44	1218.46
543.80	1213.31
544.15	1210.24
544.51	1204.32
544.86	1205.59
545.22	1201.30
545.57	1199.01
545.93	1195.05
546.28	1192.76
546.64	1186.42
546.99	1184.05
547.35	1181.15
547.70	1176.49
548.05	1176.35
548.41	1175.58
548.76	1168.77
549.12	1166.52
549.47	1166.01
549.83	1164.53
550.18	1161.21
550.53	1161.94
550.89	1157.28
551.24	1153.95
551.60	1151.94
551.95	1151.87
552.30	1151.92
552.66	1151.50
553.01	1151.12
553.37	1147.10
553.72	1141.50
554.07	1139.23
554.43	1139.54
554.78	1139.19
555.13	1136.47
555.49	1138.53
555.84	1136.38
556.19	1136.33
556.55	1134.95
556.90	1136.26
557.26	1135.35
557.61	1134.41
557.96	1130.85
558.32	1130.06
558.67	1129.19
559.02	1129.75
559.37	1127.32
559.73	1126.57
560.08	1122.54
560.43	1120.39
560.79	1118.14
561.14	1115.94
561.49	1116.79
561.85	1118.35
562.20	1117.04
562.55	1114.63
562.90	1116.41
563.26	1113.46
563.61	1111.99
563.96	1111.26
564.32	1112.92
564.67	1113.88
565.02	1115.87
565.37	1116.51
565.73	1119.60
566.08	1118.21
566.43	1116.15
566.78	1111.03
567.14	1110.47
567.49	1108.78
567.84	1107.12
568.19	1108.88
568.54	1109.72
568.90	1106.96
569.25	1103.73
569.60	1101.57
569.95	1099.16
570.31	1100.66
570.66	1100.68
571.01	1102.11
571.36	1104.85
571.71	1104.52
572.06	1100.92
572.42	1101.34
572.77	1099.37
573.12	1099.68
573.47	1098.09
573.82	1101.46
574.18	1102.02
574.53	1103.63
574.88	1101.85
575.23	1101.13
575.58	1099.86
575.93	1096.03
576.28	1097.08
576.64	1096.47
576.99	1096.03
577.34	1093.55
577.69	1092.49
578.04	1090.20
578.39	1088.75
578.74	1090.13
579.09	1091.53
579.44	1096.19
579.80	1096.31
580.15	1098.39
580.50	1097.88
580.85	1097.69
581.20	1094.36
581.55	1092.68
581.90	1092.37
582.25	1093.55
582.60	1094.65
582.95	1095.23
583.30	1094.74
583.65	1091.70
584.00	1090.67
584.35	1090.67
584.71	1089.40
585.06	1091.58
585.41	1092.33
585.76	1091.13
586.11	1087.55
586.46	1089.07
586.81	1087.67
587.16	1088.70
587.51	1086.80
587.86	1089.29
588.21	1088.54
588.56	1090.15
588.91	1091.30
589.26	1092.14
589.61	1093.19
589.96	1094.55
590.31	1093.40
590.66	1090.95
591.01	1092.94
591.36	1090.48
591.71	1089.66
592.06	1091.27
592.41	1093.26
592.76	1091.74
593.10	1091.37
593.45	1092.05
593.80	1085.91
594.15	1085.10
594.50	1084.07
594.85	1083.15
595.20	1084.16
595.55	1088.40
595.90	1087.72
596.25	1085.42
596.60	1087.27
596.95	1087.34
597.30	1090.22
597.64	1101.03
597.99	1106.77
598.34	1107.85
598.69	1107.61
599.04	1104.36
599.39	1092.82
599.74	1089.71
600.09	1088.19
600.44	1086.78
600.78	1085.96
601.13	1087.95
601.48	1087.23
601.83	1089.54
602.18	1090.92
602.53	1090.97
602.88	1086.76
603.22	1087.79
603.57	1083.04
603.92	1080.56
604.27	1079.67
604.62	1078.96
604.97	1080.91
605.31	1084.28
605.66	1085.77
606.01	1086.41
606.36	1089.92
606.71	1086.90
607.05	1085.59
607.40	1085.07
607.75	1085.68
608.10	1086.13
608.44	1083.90
608.79	1087.18
609.14	1084.63
609.49	1083.41
609.84	1082.71
610.18	1086.55
610.53	1081.63
610.88	1083.90
611.23	1082.87
611.57	1082.33
611.92	1079.92
612.27	1081.70
612.62	1079.41
612.96	1080.86
613.31	1084.00
613.66	1084.96
614.00	1082.87
614.35	1084.51
614.70	1085.26
615.05	1082.61
615.39	1084.84
615.74	1085.38
616.09	1085.21
616.43	1083.34
616.78	1084.14
617.13	1081.96
617.47	1083.71
617.82	1084.58
618.17	1089.73
618.51	1089.03
618.86	1090.17
619.21	1088.54
619.55	1086.48
619.90	1081.14
620.25	1080.11
620.59	1079.10
620.94	1079.06
621.29	1078.40
621.63	1079.24
621.98	1079.36
622.32	1080.60
622.67	1084.63
623.02	1086.87
623.36	1087.83
623.71	1087.18
624.05	1088.75
624.40	1082.71
624.75	1082.15
625.09	1081.40
625.44	1084.63
625.78	1083.43
626.13	1084.98
626.48	1083.81
626.82	1081.28
627.17	1080.04
627.51	1080.84
627.86	1080.84
628.20	1081.09
628.55	1082.36
628.89	1081.98
629.24	1082.10
629.58	1084.96
629.93	1085.40
630.28	1086.55
630.62	1085.19
630.97	1081.49
631.31	1081.07
631.66	1081.61
632.00	1081.73
632.35	1082.76
632.69	1083.41
633.04	1080.79
633.38	1080.18
633.73	1081.77
634.07	1082.57
634.42	1082.01
634.76	1083.64
635.11	1085.42
635.45	1083.29
635.79	1082.87
636.14	1083.50
636.48	1084.56
636.83	1084.11
637.17	1086.57
637.52	1087.20
637.86	1084.35
638.21	1083.86
638.55	1085.45
638.89	1083.60
639.24	1081.30
639.58	1085.17
639.93	1084.67
640.27	1079.36
640.61	1079.53
640.96	1081.80
641.30	1080.09
641.65	1079.71
641.99	1078.31
642.33	1077.40
642.68	1076.76
643.02	1078.05
643.37	1079.17
643.71	1079.88
644.05	1079.81
644.40	1079.97
644.74	1081.44
645.08	1079.48
645.43	1082.10
645.77	1084.39
646.11	1083.18
646.46	1081.44
646.80	1081.42
647.14	1082.66
647.49	1081.42
647.83	1081.58
648.17	1080.20
648.52	1086.17
648.86	1087.72
649.20	1087.39
649.55	1087.60
649.89	1088.12
650.23	1082.87
650.57	1081.56
650.92	1079.50
651.26	1078.68
651.60	1081.63
651.95	1081.00
652.29	1078.38
652.63	1081.77
652.97	1084.79
653.32	1082.57
653.66	1084.14
654.00	1087.95
654.34	1085.61
654.69	1083.67
655.03	1084.21
655.37	1083.06
655.71	1081.49
656.05	1082.78
656.40	1079.74
656.74	1083.48
657.08	1082.76
657.42	1081.28
657.76	1080.02
658.11	1081.05
658.45	1075.83
658.79	1076.53
659.13	1079.81
659.47	1079.88
659.82	1081.49
660.16	1083.41
660.50	1082.73
660.84	1079.76
661.18	1079.27
661.52	1077.51
661.87	1074.28
662.21	1074.40
662.55	1074.17
662.89	1075.10
663.23	1077.96
663.57	1078.78
663.91	1082.57
664.25	1082.38
664.60	1082.26
664.94	1078.89
665.28	1079.81
665.62	1074.75
665.96	1074.89
666.30	1076.79
666.64	1078.40
666.98	1078.07
667.32	1081.26
667.66	1080.81
668.01	1076.48
668.35	1074.91
668.69	1072.62
669.03	1069.79
669.37	1070.21
669.71	1073.23
670.05	1078.89
670.39	1081.91
670.73	1084.96
671.07	1085.68
671.41	1085.84
671.75	1084.32
672.09	1085.35
672.43	1084.25
672.77	1087.18
673.11	1087.83
673.45	1085.54
673.79	1082.66
674.13	1082.66
674.47	1078.00
674.81	1076.74
675.15	1078.05
675.49	1082.71
675.83	1082.08
676.17	1087.55
676.51	1086.83
676.85	1084.23
677.19	1080.23
677.53	1078.05
677.87	1072.97
678.21	1070.89
678.55	1074.56
678.89	1075.80
679.23	1080.37
679.57	1083.64
679.90	1084.14
680.24	1080.88
680.58	1080.67
680.92	1077.28
681.26	1078.31
681.60	1080.09
681.94	1080.56
682.28	1075.73
682.62	1076.13
682.96	1075.13
683.29	1077.91
683.63	1077.47
683.97	1084.28
684.31	1088.14
684.65	1084.07
684.99	1079.81
685.33	1079.76
685.67	1074.91
686.00	1073.44
686.34	1075.24
686.68	1076.39
687.02	1078.40
687.36	1082.45
687.70	1082.78
688.03	1084.42
688.37	1085.77
688.71	1084.35
689.05	1081.51
689.39	1077.70
689.72	1075.20
690.06	1073.53
690.40	1073.11
690.74	1074.03
691.08	1075.73
691.41	1077.37
691.75	1079.90
692.09	1075.71
692.43	1075.85
692.76	1075.92
693.10	1073.81
693.44	1073.95
693.78	1077.84
694.11	1077.65
694.45	1076.53
694.79	1077.93
695.13	1074.61
695.46	1072.85
695.80	1071.68
696.14	1072.11
696.48	1071.85
696.81	1076.27
697.15	1079.03
697.49	1081.63
697.82	1083.55
698.16	1083.90
698.50	1081.80
698.83	1082.38
699.17	1080.30
699.51	1080.30
699.84	1079.24
700.18	1081.54
700.52	1080.11
700.85	1079.90
701.19	1079.90
701.53	1086.20
701.86	1081.68
702.20	1085.40
702.54	1088.37
702.87	1082.64
703.21	1075.38
703.55	1076.74
703.88	1074.05
704.22	1070.26
704.55	1074.31
704.89	1078.07
705.23	1077.40
705.56	1079.78
705.90	1080.93
706.23	1081.58
706.57	1079.97
706.91	1082.17
707.24	1082.19
707.58	1082.31
707.91	1082.64
708.25	1082.29
708.58	1082.43
708.92	1079.38
709.26	1081.09
709.59	1078.12
709.93	1078.52
710.26	1078.24
710.60	1077.84
710.93	1076.67
711.27	1075.83
711.60	1074.40
711.94	1073.32
712.27	1076.25
712.61	1075.08
712.94	1078.00
713.28	1079.29
713.61	1079.97
713.95	1079.20
714.28	1080.93
714.62	1080.06
714.95	1078.50
715.29	1077.63
715.62	1073.35
715.96	1068.13
716.29	1070.51
716.63	1069.77
716.96	1068.27
717.29	1070.42
717.63	1074.31
717.96	1073.35
718.30	1076.90
718.63	1074.96
718.97	1074.38
719.30	1074.05
719.63	1072.11
719.97	1069.62
720.30	1076.06
720.64	1081.00
720.97	1082.92
721.30	1085.80
721.64	1089.22
721.97	1084.79
722.31	1077.63
722.64	1075.97
722.97	1075.31
723.31	1073.86
723.64	1075.57
723.97	1079.36
724.31	1081.70
724.64	1080.79
724.98	1081.37
725.31	1080.74
725.64	1083.67
725.98	1086.90
726.31	1085.19
726.64	1082.15
726.97	1081.09
727.31	1078.24
727.64	1076.62
727.97	1079.38
728.31	1080.23
728.64	1081.80
728.97	1082.33
729.31	1082.43
729.64	1082.54
729.97	1085.19
730.30	1084.02
730.64	1080.53
730.97	1078.45
731.30	1078.50
731.63	1075.99
731.97	1076.93
732.30	1079.13
732.63	1079.24
732.96	1077.11
733.30	1079.01
733.63	1077.56
733.96	1081.28
734.29	1083.18
734.63	1082.38
734.96	1082.33
735.29	1082.52
735.62	1078.92
735.95	1079.43
736.29	1078.92
736.62	1079.29
736.95	1080.86
737.28	1081.37
737.61	1078.52
737.94	1079.50
738.28	1080.51
738.61	1079.55
738.94	1078.61
739.27	1078.50
739.60	1079.60
739.93	1078.94
740.27	1079.22
740.60	1082.97
740.93	1083.46
741.26	1085.40
741.59	1084.18
741.92	1085.42
742.25	1083.64
742.58	1082.78
742.91	1079.62
743.25	1078.87
743.58	1074.73
743.91	1071.15
744.24	1072.13
744.57	1073.18
744.90	1073.86
745.23	1076.32
745.56	1079.46
745.89	1076.81
746.22	1077.82
746.55	1076.76
746.88	1079.78
747.21	1079.38
747.54	1079.71
747.87	1079.48
748.20	1081.54
748.53	1078.24
748.87	1078.03
749.20	1079.27
749.53	1078.31
749.86	1078.07
750.19	1078.94
750.52	1076.93
750.85	1075.36
751.18	1075.08
751.51	1074.28
751.84	1073.86
752.16	1076.01
752.49	1078.24
752.82	1078.54
753.15	1078.10
753.48	1076.08
753.81	1077.14
754.14	1076.95
754.47	1079.24
754.80	1079.17
755.13	1078.87
755.46	1075.85
755.79	1075.90
756.12	1076.11
756.45	1078.96
756.78	1079.50
757.11	1082.52
757.43	1081.21
757.76	1078.05
758.09	1075.10
758.42	1072.81
758.75	1068.83
759.08	1068.67
759.41	1070.96
759.74	1071.82
760.07	1079.83
760.39	1080.65
760.72	1081.56
761.05	1081.58
761.38	1079.43
761.71	1074.28
762.04	1076.25
762.36	1076.79
762.69	1073.65
763.02	1076.76
763.35	1079.88
763.68	1081.91
764.01	1081.96
764.33	1084.91
764.66	1081.94
764.99	1077.56
765.32	1074.98
765.65	1072.71
765.97	1070.23
766.30	1068.59
766.63	1067.42
766.96	1068.97
767.28	1069.55
767.61	1068.41
767.94	1072.81
768.27	1076.55
768.59	1072.74
768.92	1073.88
769.25	1074.59
769.58	1074.28
769.90	1071.64
770.23	1070.70
770.56	1068.85
770.89	1070.89
771.21	1072.08
771.54	1073.53
771.87	1077.14
772.19	1079.99
772.52	1082.40
772.85	1079.13
773.17	1080.58
773.50	1082.15
773.83	1082.03
774.15	1079.27
774.48	1081.42
774.81	1080.44
775.13	1074.77
775.46	1074.47
775.79	1072.50
776.11	1070.72
776.44	1071.12
776.77	1076.32
777.09	1076.18
777.42	1081.56
777.74	1084.72
778.07	1083.95
778.40	1085.87
778.72	1085.07
779.05	1081.94
779.37	1078.80
779.70	1083.74
780.03	1080.88
780.35	1078.96
780.68	1078.82
781.00	1079.76
781.33	1075.17
781.65	1077.07
781.98	1078.12
782.31	1080.46
782.63	1080.93
782.96	1082.61
783.28	1084.74
783.61	1084.46
783.93	1082.08
784.26	1080.93
784.58	1081.12
784.91	1077.33
785.23	1078.40
785.56	1080.79
785.88	1079.62
786.21	1077.63
786.53	1076.83
786.86	1076.55
787.18	1075.24
787.51	1076.88
787.83	1079.15
788.16	1080.84
788.48	1078.24
788.81	1076.34
789.13	1075.08
789.46	1074.05
789.78	1072.01
790.10	1076.11
790.43	1072.46
790.75	1069.30
791.08	1067.85
791.40	1067.19
791.73	1066.49
792.05	1068.29
792.37	1072.88
792.70	1076.79
793.02	1079.06
793.35	1080.91
793.67	1083.81
793.99	1081.02
794.32	1077.25
794.64	1074.91
794.96	1073.91
795.29	1074.31
795.61	1074.54
795.93	1074.03
796.26	1075.22
796.58	1073.35
796.91	1071.10
797.23	1071.38
797.55	1073.70
797.87	1073.93
798.20	1074.17
798.52	1075.62
798.84	1076.69
799.17	1075.62
799.49	1073.32
799.81	1075.57
800.14	1072.69
800.46	1073.74
800.78	1073.77
801.10	1076.32
801.43	1073.30
801.75	1076.08
802.07	1076.32
802.40	1075.45
802.72	1074.59
803.04	1074.98
803.36	1076.53
803.69	1078.54
804.01	1078.64
804.33	1078.36
804.65	1076.58
804.97	1073.09
805.30	1070.98
805.62	1072.29
805.94	1070.26
806.26	1070.23
806.58	1073.21
806.91	1070.96
807.23	1070.05
807.55	1076.76
807.87	1082.29
808.19	1080.93
808.52	1085.84
808.84	1089.05
809.16	1088.26
809.48	1085.54
809.80	1087.65
810.12	1081.56
810.44	1077.02
810.77	1075.29
811.09	1078.12
811.41	1076.20
811.73	1079.71
812.05	1081.82
812.37	1080.84
812.69	1079.27
813.01	1080.46
813.33	1077.75
813.66	1073.39
813.98	1072.36
814.30	1074.10
814.62	1070.84
814.94	1074.52
815.26	1077.23
815.58	1078.64
815.90	1076.51
816.22	1076.46
816.54	1073.51
816.86	1072.50
817.18	1070.56
817.50	1069.27
817.82	1072.08
818.14	1071.22
818.46	1070.65
818.78	1071.01
819.10	1069.37
819.42	1070.70
819.74	1076.39
820.06	1078.87
820.38	1077.77
820.70	1076.67
821.02	1071.43
821.34	1065.60
821.66	1063.45
821.98	1065.37
822.30	1067.40
822.62	1071.92
822.94	1073.51
823.26	1075.66
823.58	1076.34
823.90	1077.49
824.22	1079.48
824.54	1078.89
824.86	1079.57
825.18	1080.86
825.50	1080.25
825.81	1077.35
826.13	1078.00
826.45	1078.26
826.77	1077.82
827.09	1078.87
827.41	1077.54
827.73	1077.04
828.05	1076.55
828.36	1074.14
828.68	1071.29
829.00	1074.05
829.32	1073.84
829.64	1077.21
829.96	1076.79
830.28	1078.94
830.59	1076.55
830.91	1078.38
831.23	1074.17
831.55	1073.42
831.87	1076.48
832.19	1076.18
832.50	1075.31
832.82	1076.25
833.14	1079.76
833.46	1078.07
833.78	1077.04
834.09	1079.95
834.41	1077.18
834.73	1074.54
835.05	1074.77
835.36	1076.93
835.68	1072.85
836.00	1080.02
836.32	1079.69
836.63	1077.18
836.95	1077.42
837.27	1079.76
837.59	1072.83
837.90	1074.21
838.22	1075.85
838.54	1074.31
838.85	1074.68
839.17	1078.64
839.49	1080.04
839.80	1082.33
840.12	1083.11
840.44	1082.76
840.76	1081.58
841.07	1080.88
841.39	1076.46
841.71	1078.75
842.02	1077.58
842.34	1075.13
842.65	1073.28
842.97	1075.90
843.29	1076.15
843.60	1076.81
843.92	1078.89
844.24	1082.05
844.55	1078.71
844.87	1075.45
845.18	1075.15
845.50	1074.61
845.82	1070.58
846.13	1070.94
846.45	1073.60
846.76	1074.38
847.08	1074.84
847.40	1077.96
847.71	1078.71
848.03	1078.24
848.34	1078.59
848.66	1079.41
848.97	1077.65
849.29	1076.93
849.60	1077.00
849.92	1075.71
850.24	1070.89
850.55	1072.60
850.87	1076.20
851.18	1072.06
851.50	1072.57
851.81	1073.91
852.13	1072.60
852.44	1071.85
852.76	1075.34
853.07	1074.56
853.39	1074.63
853.70	1076.04
854.01	1076.39
854.33	1073.93
854.64	1072.01
854.96	1076.60
855.27	1074.61
855.59	1072.62
855.90	1071.12
856.22	1075.27
856.53	1072.60
856.84	1072.48
857.16	1074.96
857.47	1077.09
857.79	1077.51
858.10	1077.35
858.41	1081.35
858.73	1077.75
859.04	1078.31
859.36	1077.82
859.67	1074.33
859.98	1072.04
860.30	1074.70
860.61	1076.86
860.92	1075.08
861.24	1079.15
861.55	1079.69
861.87	1079.08
862.18	1077.49
862.49	1076.83
862.81	1078.75
863.12	1076.08
863.43	1074.77
863.74	1072.41
864.06	1074.52
864.37	1071.03
864.68	1072.22
865.00	1070.98
865.31	1073.49
865.62	1072.83
865.94	1075.27
866.25	1074.77
866.56	1075.48
866.87	1075.97
867.19	1076.95
867.50	1076.18
867.81	1076.90
868.12	1079.08
868.44	1079.06
868.75	1080.95
869.06	1082.85
869.37	1079.69
869.68	1079.43
870.00	1078.03
870.31	1074.10
870.62	1073.35
870.93	1076.08
871.24	1075.13
871.56	1074.00
871.87	1073.74
872.18	1074.91
872.49	1078.17
872.80	1078.26
873.12	1079.29
873.43	1081.40
873.74	1076.65
874.05	1074.61
874.36	1074.70
874.67	1075.48
874.98	1075.08
875.29	1078.05
875.61	1079.34
875.92	1080.79
876.23	1081.35
876.54	1078.50
876.85	1076.51
877.16	1073.18
877.47	1070.49
877.78	1070.63
878.09	1075.22
878.40	1079.67
878.72	1079.34
879.03	1081.96
879.34	1082.43
879.65	1077.44
879.96	1074.31
880.27	1077.75
880.58	1077.93
880.89	1074.59
881.20	1074.35
881.51	1072.34
881.82	1073.72
882.13	1072.41
882.44	1076.01
882.75	1076.90
883.06	1079.48
883.37	1075.59
883.68	1074.94
883.99	1072.25
884.30	1072.22
884.61	1070.12
884.92	1070.09
885.23	1073.35
885.54	1075.01
885.85	1074.38
886.16	1077.72
886.47	1078.57
886.78	1076.08
887.08	1076.32
887.39	1079.57
887.70	1076.79
888.01	1076.13
888.32	1076.25
888.63	1074.52
888.94	1074.00
889.25	1072.90
889.56	1073.14
889.87	1072.43
890.17	1073.44
890.48	1072.90
890.79	1076.11
891.10	1076.58
891.41	1079.08
891.72	1075.92
892.03	1076.46
892.34	1076.37
892.64	1075.20
892.95	1072.18
893.26	1078.31
893.57	1077.84
893.88	1077.00
894.18	1076.32
894.49	1077.23
894.80	1073.79
895.11	1074.05
895.42	1072.48
895.72	1077.44
896.03	1078.28
896.34	1080.09
896.65	1079.85
896.96	1082.66
897.26	1080.06
897.57	1077.14
897.88	1075.22
898.19	1077.09
898.49	1074.96
898.80	1074.35
899.11	1078.87
899.41	1077.18
899.72	1074.94
900.03	1075.62
900.34	1074.94
900.64	1072.08
900.95	1075.85
901.26	1075.80
901.56	1075.55
901.87	1076.15
902.18	1074.59
902.48	1074.56
902.79	1074.49
903.10	1072.60
903.40	1071.82
903.71	1075.27
904.02	1074.77
904.32	1075.66
904.63	1079.50
904.94	1079.92
905.24	1078.94
905.55	1076.53
905.85	1077.21
906.16	1076.06
906.47	1076.69
906.77	1074.61
907.08	1075.57
907.38	1070.00
907.69	1071.73
908.00	1073.58
908.30	1074.98
908.61	1077.40
908.91	1079.64
909.22	1075.90
909.52	1072.29
909.83	1069.65
910.14	1067.24
910.44	1065.46
910.75	1067.19
911.05	1069.44
911.36	1070.75
911.66	1072.29
911.97	1076.60
912.27	1073.88
912.58	1072.11
912.88	1074.84
913.19	1073.77
913.49	1074.52
913.80	1077.33
914.10	1076.65
914.41	1076.27
914.71	1077.35
915.01	1074.91
915.32	1076.69
915.62	1078.71
915.93	1078.43
916.23	1077.42
916.54	1076.60
916.84	1073.81
917.15	1072.13
917.45	1072.55
917.75	1071.36
918.06	1074.12
918.36	1073.07
918.67	1074.80
918.97	1073.86
919.27	1077.37
919.58	1076.18
919.88	1078.14
920.18	1079.34
920.49	1079.97
920.79	1074.89
921.10	1075.90
921.40	1072.88
921.70	1073.14
922.01	1074.14
922.31	1076.01
922.61	1077.47
922.92	1082.66
923.22	1079.01
923.52	1080.56
923.82	1080.93
924.13	1078.26
924.43	1076.93
924.73	1078.00
925.04	1074.91
925.34	1074.33
925.64	1072.90
925.94	1072.83
926.25	1073.74
926.55	1075.57
926.85	1075.76
927.15	1077.02
927.46	1073.49
927.76	1073.79
928.06	1077.75
928.36	1079.55
928.67	1079.22
928.97	1084.04
929.27	1082.17
929.57	1073.28
929.87	1072.95
930.18	1071.22
930.48	1068.06
930.78	1069.70
931.08	1073.67
931.38	1072.34
931.69	1075.99
931.99	1080.53
932.29	1078.99
932.59	1079.34
932.89	1079.38
933.19	1080.53
933.49	1078.43
933.80	1079.34
934.10	1078.66
934.40	1077.79
934.70	1077.79
935.00	1077.89
935.30	1080.30
935.60	1080.51
935.90	1081.56
936.20	1082.50
936.50	1084.58
936.81	1084.58
937.11	1086.48
937.41	1089.40
937.71	1086.03
938.01	1081.37
938.31	1078.94
938.61	1076.60
938.91	1077.44
939.21	1078.17
939.51	1080.16
939.81	1079.92
940.11	1080.06
940.41	1078.80
940.71	1079.55
941.01	1077.07
941.31	1075.13
941.61	1074.91
941.91	1074.31
942.21	1071.31
942.51	1073.49
942.81	1077.75
943.11	1077.44
943.41	1076.81
943.71	1079.01
944.01	1078.31
944.31	1075.05
944.61	1075.59
944.90	1074.77
945.20	1075.17
945.50	1074.42
945.80	1075.92
946.10	1074.77
946.40	1076.32
946.70	1074.89
947.00	1076.65
947.30	1076.04
947.60	1074.89
947.89	1074.87
948.19	1076.88
948.49	1076.04
948.79	1079.41
949.09	1080.39
949.39	1079.13
949.69	1079.85
949.98	1074.73
950.28	1070.19
950.58	1070.12
950.88	1071.64
951.18	1068.13
951.48	1073.53
951.77	1074.00
952.07	1077.54
952.37	1078.61
952.67	1079.71
952.97	1078.05
953.26	1079.81
953.56	1075.29
953.86	1074.14
954.16	1075.90
954.45	1076.44
954.75	1075.97
955.05	1076.25
955.35	1074.70
955.64	1075.73
955.94	1076.95
956.24	1074.61
956.54	1077.28
956.83	1075.73
957.13	1073.42
957.43	1076.06
957.72	1079.78
958.02	1076.90
958.32	1079.53
958.61	1080.25
958.91	1077.16
959.21	1077.44
959.50	1079.69
959.80	1078.33
960.10	1076.44
960.39	1077.28
960.69	1073.09
960.99	1071.54
961.28	1070.84
961.58	1069.34
961.87	1066.25
962.17	1067.17
962.47	1069.86
962.76	1072.76
963.06	1074.73
963.36	1076.13
963.65	1076.37
963.95	1074.52
964.24	1074.75
964.54	1077.09
964.83	1076.86
965.13	1076.48
965.42	1078.00
965.72	1076.90
966.02	1072.90
966.31	1073.72
966.61	1076.46
966.90	1077.33
967.20	1080.20
967.49	1082.94
967.79	1085.61
968.08	1083.88
968.38	1081.75
968.67	1076.04
968.97	1076.65
969.26	1073.65
969.56	1073.49
969.85	1074.21
970.15	1074.89
970.44	1074.14
970.74	1074.59
971.03	1077.00
971.32	1076.58
971.62	1080.16
971.91	1080.53
972.21	1081.61
972.50	1080.37
972.80	1078.78
973.09	1076.37
973.38	1075.76
973.68	1076.62
973.97	1077.11
974.27	1077.91
974.56	1077.86
974.85	1077.44
975.15	1075.45
975.44	1074.91
975.73	1079.20
976.03	1079.83
976.32	1080.02
976.61	1082.03
976.91	1082.61
977.20	1077.44
977.49	1077.96
977.79	1078.40
978.08	1079.95
978.37	1079.13
978.67	1078.12
978.96	1080.46
979.25	1083.25
979.55	1078.89
979.84	1078.24
980.13	1079.48
980.42	1074.54
980.72	1073.60
981.01	1075.08
981.30	1073.84
981.59	1074.17
981.89	1080.41
982.18	1076.32
982.47	1075.80
982.76	1076.93
983.06	1078.12
983.35	1070.44
983.64	1074.19
983.93	1074.42
984.22	1075.15
984.52	1072.95
984.81	1075.69
985.10	1072.46
985.39	1075.41
985.68	1073.30
985.97	1072.43
986.27	1074.21
986.56	1075.48
986.85	1073.00
987.14	1075.85
987.43	1079.08
987.72	1078.24
988.01	1080.74
988.31	1077.33
988.60	1074.24
988.89	1074.91
989.18	1074.19
989.47	1071.45
989.76	1073.42
990.05	1073.91
990.34	1072.67
990.63	1072.90
990.92	1076.72
991.21	1074.45
991.51	1075.34
991.80	1073.88
992.09	1070.98
992.38	1067.33
992.67	1070.98
992.96	1072.01
993.25	1073.88
993.54	1075.94
993.83	1077.30
994.12	1076.44
994.41	1080.81
994.70	1081.82
994.99	1081.44
995.28	1078.54
995.57	1076.01
995.86	1072.06
996.15	1073.09
996.44	1072.69
996.73	1074.21
997.02	1078.14
997.31	1078.94
997.59	1077.49
997.88	1078.43
998.17	1080.02
998.46	1081.61
998.75	1081.96
999.04	1083.46
999.33	1086.43
999.62	1087.88
999.91	1086.90
1000.20	1085.07
1000.49	1082.73
1000.77	1083.01
1001.06	1080.46
1001.35	1081.26
1001.64	1081.61
1001.93	1081.16
1002.22	1078.21
1002.51	1076.55
1002.79	1072.27
1003.08	1072.20
1003.37	1072.22
1003.66	1074.05
1003.95	1076.86
1004.23	1081.09
1004.52	1080.46
1004.81	1079.74
1005.10	1079.50
1005.39	1076.69
1005.67	1075.29
1005.96	1078.47
1006.25	1077.40
1006.54	1075.36
1006.83	1075.27
1007.11	1074.52
1007.40	1068.95
1007.69	1071.12
1007.97	1072.76
1008.26	1070.40
1008.55	1070.56
1008.84	1074.07
1009.12	1073.32
1009.41	1071.45
1009.70	1075.87
1009.98	1074.19
1010.27	1070.61
1010.56	1070.30
1010.85	1073.79
1011.13	1073.21
1011.42	1075.05
1011.71	1077.77
1011.99	1080.58
1012.28	1076.79
1012.56	1076.55
1012.85	1077.96
1013.14	1076.83
1013.42	1074.56
1013.71	1077.98
1014.00	1079.17
1014.28	1075.31
1014.57	1074.84
1014.85	1076.76
1015.14	1077.02
1015.43	1076.27
1015.71	1080.88
1016.00	1078.24
1016.28	1072.83
1016.57	1068.78
1016.85	1070.98
1017.14	1067.96
1017.43	1074.75
1017.71	1076.86
1018.00	1080.72
1018.28	1076.23
1018.57	1075.97
1018.85	1075.55
1019.14	1079.60
1019.42	1074.96
1019.71	1075.41
1019.99	1074.94
1020.28	1073.58
1020.56	1072.92
1020.85	1076.41
1021.13	1077.70
1021.42	1076.76
1021.70	1075.55
1021.99	1071.26
1022.27	1068.97
1022.55	1062.02
1022.84	1069.27
>>>>>End Processed Spectral Data<<<<<
