SpectraSuite Data File
++++++++++++++++++++++++++++++++++++
Date: Mon Aug 26 10:22:31 PDT 2019
User: corrico
Dark Spectrum Present: No
Reference Spectrum Present: No
Number of Sampled Component Spectra: 1
Spectrometers: USB2+H06089
Integration Time (usec): 2000 (USB2+H06089)
Spectra Averaged: 20 (USB2+H06089)
Boxcar Smoothing: 2 (USB2+H06089)
Correct for Electrical Dark: No (USB2+H06089)
Strobe/Lamp Enabled: No (USB2+H06089)
Correct for Detector Non-linearity: No (USB2+H06089)
Correct for Stray Light: No (USB2+H06089)
Number of Pixels in Processed Spectrum: 2048
>>>>>Begin Processed Spectral Data<<<<<
339.70	1038.85
340.07	1038.85
340.45	1000.53
340.82	973.66
341.19	951.15
341.57	924.07
341.94	916.90
342.31	907.92
342.69	905.34
343.06	900.85
343.43	903.17
343.81	900.50
344.18	905.30
344.55	914.05
344.93	918.33
345.30	921.68
345.67	929.52
346.04	936.35
346.42	936.21
346.79	940.57
347.16	946.70
347.54	954.52
347.91	962.94
348.28	978.62
348.65	992.67
349.03	1004.30
349.40	1015.25
349.77	1024.12
350.14	1030.02
350.52	1035.94
350.89	1042.52
351.26	1048.89
351.63	1056.42
352.01	1061.57
352.38	1065.67
352.75	1068.38
353.12	1067.96
353.50	1068.76
353.87	1072.22
354.24	1077.37
354.61	1080.65
354.98	1083.79
355.36	1085.33
355.73	1086.43
356.10	1085.07
356.47	1081.70
356.84	1083.71
357.22	1082.47
357.59	1083.36
357.96	1084.89
358.33	1090.15
358.70	1089.38
359.08	1091.11
359.45	1089.92
359.82	1088.63
360.19	1088.98
360.56	1089.17
360.94	1087.20
361.31	1086.15
361.68	1085.07
362.05	1082.64
362.42	1081.47
362.79	1081.23
363.16	1077.65
363.54	1074.24
363.91	1074.00
364.28	1075.17
364.65	1075.52
365.02	1075.64
365.39	1078.33
365.76	1077.75
366.14	1074.26
366.51	1075.24
366.88	1078.26
367.25	1079.27
367.62	1079.71
367.99	1082.61
368.36	1080.13
368.73	1077.37
369.10	1077.75
369.48	1079.85
369.85	1078.24
370.22	1078.31
370.59	1081.77
370.96	1079.60
371.33	1077.21
371.70	1077.89
372.07	1079.31
372.44	1077.51
372.81	1079.36
373.18	1078.36
373.55	1079.38
373.93	1077.93
374.30	1079.53
374.67	1076.86
375.04	1078.87
375.41	1075.97
375.78	1080.72
376.15	1078.68
376.52	1079.31
376.89	1079.36
377.26	1081.05
377.63	1079.53
378.00	1081.28
378.37	1084.39
378.74	1082.90
379.11	1084.74
379.48	1084.18
379.85	1083.08
380.22	1081.09
380.59	1080.46
380.96	1082.36
381.33	1083.32
381.70	1084.91
382.07	1083.43
382.44	1084.16
382.81	1080.39
383.18	1076.15
383.55	1075.43
383.92	1079.60
384.29	1080.34
384.66	1077.91
385.03	1082.17
385.40	1083.22
385.77	1081.73
386.14	1082.57
386.51	1089.50
386.88	1086.43
387.25	1084.46
387.62	1084.86
387.99	1083.60
388.36	1080.79
388.73	1084.07
389.10	1086.50
389.46	1086.08
389.83	1086.48
390.20	1085.10
390.57	1083.08
390.94	1082.12
391.31	1082.08
391.68	1085.45
392.05	1085.68
392.42	1088.19
392.79	1085.68
393.16	1086.55
393.53	1084.11
393.89	1088.77
394.26	1088.58
394.63	1092.02
395.00	1093.31
395.37	1092.23
395.74	1089.12
396.11	1088.84
396.48	1090.83
396.84	1086.83
397.21	1087.39
397.58	1085.94
397.95	1085.96
398.32	1085.73
398.69	1086.97
399.06	1088.30
399.42	1089.14
399.79	1086.29
400.16	1085.26
400.53	1085.45
400.90	1084.46
401.27	1086.57
401.64	1090.22
402.00	1088.65
402.37	1091.88
402.74	1094.06
403.11	1091.65
403.48	1094.62
403.84	1095.07
404.21	1096.70
404.58	1098.34
404.95	1100.71
405.32	1098.18
405.68	1099.33
406.05	1100.85
406.42	1097.83
406.79	1095.07
407.16	1096.05
407.52	1095.21
407.89	1088.12
408.26	1088.35
408.63	1090.81
408.99	1091.49
409.36	1096.03
409.73	1101.01
410.10	1103.82
410.47	1101.53
410.83	1100.96
411.20	1099.14
411.57	1096.38
411.94	1092.56
412.30	1097.01
412.67	1097.45
413.04	1096.89
413.40	1098.37
413.77	1102.04
414.14	1098.23
414.51	1098.02
414.87	1099.30
415.24	1100.96
415.61	1099.47
415.97	1102.67
416.34	1100.87
416.71	1100.68
417.08	1100.92
417.44	1104.12
417.81	1108.38
418.18	1113.16
418.54	1117.23
418.91	1116.79
419.28	1117.44
419.64	1114.24
420.01	1115.71
420.38	1114.24
420.74	1117.49
421.11	1117.49
421.48	1121.14
421.84	1122.61
422.21	1122.71
422.58	1125.14
422.94	1125.87
423.31	1126.99
423.68	1128.30
424.04	1134.57
424.41	1135.93
424.77	1141.81
425.14	1146.04
425.51	1148.85
425.87	1150.63
426.24	1156.13
426.61	1161.49
426.97	1163.81
427.34	1168.49
427.70	1174.60
428.07	1179.54
428.44	1187.03
428.80	1198.99
429.17	1203.74
429.53	1214.36
429.90	1223.40
430.27	1231.45
430.63	1239.99
431.00	1253.68
431.36	1262.74
431.73	1273.42
432.09	1285.82
432.46	1297.83
432.83	1314.70
433.19	1331.48
433.56	1352.38
433.92	1374.11
434.29	1400.58
434.65	1419.93
435.02	1444.25
435.38	1470.86
435.75	1498.41
436.11	1527.60
436.48	1565.91
436.84	1601.09
437.21	1635.24
437.57	1672.76
437.94	1716.39
438.30	1761.60
438.67	1808.30
439.03	1860.96
439.40	1915.87
439.76	1969.00
440.13	2024.21
440.49	2089.68
440.86	2160.15
441.22	2233.95
441.59	2308.61
441.95	2394.13
442.32	2477.83
442.68	2570.98
443.05	2663.90
443.41	2762.37
443.78	2860.63
444.14	2969.06
444.51	3080.05
444.87	3220.51
445.24	3365.18
445.60	3519.21
445.96	3677.12
446.33	3848.78
446.69	4008.05
447.06	4181.48
447.42	4362.48
447.79	4556.55
448.15	4778.06
448.51	5008.25
448.88	5273.70
449.24	5525.30
449.61	5808.27
449.97	6081.39
450.33	6368.29
450.70	6634.60
451.06	6956.47
451.43	7259.41
451.79	7631.90
452.15	8042.92
452.52	8503.12
452.88	8978.67
453.24	9524.69
453.61	10099.25
453.97	10660.11
454.34	11204.50
454.70	11855.87
455.06	12495.30
455.43	13128.60
455.79	13731.85
456.15	14458.89
456.52	15122.83
456.88	15898.98
457.24	16637.30
457.61	17490.71
457.97	18258.12
458.33	19026.26
458.70	19799.22
459.06	20563.03
459.42	21406.14
459.79	22198.58
460.15	23114.78
460.51	23979.65
460.88	24914.89
461.24	25718.93
461.60	26690.63
461.96	27578.13
462.33	28418.74
462.69	29186.06
463.05	30035.51
463.42	30727.91
463.78	31373.69
464.14	31925.77
464.50	32537.85
464.87	33011.36
465.23	33375.27
465.59	33723.63
465.95	34025.58
466.32	34285.74
466.68	34534.46
467.04	34672.65
467.40	34825.51
467.77	34995.01
468.13	34977.25
468.49	34839.93
468.85	34746.31
469.22	34548.25
469.58	34172.41
469.94	33912.58
470.30	33609.58
470.66	33196.47
471.03	32583.98
471.39	32195.80
471.75	31533.01
472.11	30917.47
472.47	30538.87
472.84	30234.22
473.20	29735.64
473.56	29462.01
473.92	29043.29
474.28	28540.63
474.65	28052.07
475.01	27599.22
475.37	27048.99
475.73	26583.48
476.09	26066.27
476.45	25551.37
476.81	25007.78
477.18	24465.08
477.54	24015.65
477.90	23647.81
478.26	23224.06
478.62	22901.07
478.98	22612.29
479.34	22310.06
479.71	21900.28
480.07	21552.89
480.43	21178.03
480.79	20783.35
481.15	20420.99
481.51	20122.26
481.87	19870.05
482.23	19590.59
482.59	19350.17
482.96	19060.43
483.32	18767.19
483.68	18384.39
484.04	18049.28
484.40	17680.36
484.76	17315.19
485.12	16925.77
485.48	16614.50
485.84	16266.56
486.20	15912.16
486.56	15549.02
486.92	15245.20
487.28	14875.11
487.64	14512.00
488.00	14174.28
488.37	13856.23
488.73	13487.48
489.09	13142.08
489.45	12826.67
489.81	12513.77
490.17	12205.68
490.53	11914.99
490.89	11607.00
491.25	11292.31
491.61	10981.49
491.97	10658.54
492.33	10334.21
492.69	10045.77
493.05	9743.70
493.41	9446.47
493.77	9168.14
494.13	8918.12
494.49	8664.85
494.85	8428.67
495.21	8207.42
495.57	7990.33
495.93	7767.63
496.29	7561.97
496.64	7380.15
497.00	7183.81
497.36	7000.03
497.72	6815.48
498.08	6633.90
498.44	6444.20
498.80	6272.54
499.16	6103.49
499.52	5956.31
499.88	5829.13
500.24	5708.71
500.60	5588.08
500.96	5476.71
501.32	5355.54
501.68	5235.66
502.03	5104.03
502.39	4988.31
502.75	4849.89
503.11	4726.48
503.47	4603.25
503.83	4484.72
504.19	4355.90
504.55	4246.36
504.91	4146.31
505.26	4046.04
505.62	3957.87
505.98	3866.87
506.34	3777.23
506.70	3680.89
507.06	3597.12
507.42	3509.89
507.78	3434.88
508.13	3360.42
508.49	3291.07
508.85	3219.34
509.21	3153.33
509.57	3086.23
509.93	3023.36
510.28	2957.52
510.64	2895.64
511.00	2829.80
511.36	2772.90
511.72	2716.33
512.07	2667.30
512.43	2614.99
512.79	2565.98
513.15	2516.68
513.51	2472.00
513.86	2424.65
514.22	2388.63
514.58	2350.97
514.94	2312.99
515.30	2273.39
515.65	2237.13
516.01	2199.71
516.37	2168.09
516.73	2142.03
517.08	2116.83
517.44	2088.72
517.80	2058.85
518.16	2032.24
518.51	1999.45
518.87	1967.22
519.23	1938.69
519.59	1912.78
519.94	1887.36
520.30	1863.35
520.66	1836.10
521.01	1817.61
521.37	1794.75
521.73	1771.97
522.09	1750.02
522.44	1733.12
522.80	1713.08
523.16	1695.58
523.51	1674.82
523.87	1659.09
524.23	1641.28
524.58	1618.01
524.94	1599.73
525.30	1582.04
525.65	1564.13
526.01	1548.12
526.37	1537.26
526.72	1521.51
527.08	1509.15
527.44	1495.79
527.79	1484.70
528.15	1467.80
528.51	1456.00
528.86	1445.30
529.22	1432.06
529.58	1421.38
529.93	1412.54
530.29	1403.88
530.65	1391.33
531.00	1381.88
531.36	1371.62
531.71	1362.26
532.07	1349.74
532.43	1346.21
532.78	1343.12
533.14	1333.43
533.49	1328.61
533.85	1327.25
534.21	1319.17
534.56	1311.14
534.92	1307.14
535.27	1298.15
535.63	1289.35
535.98	1282.22
536.34	1274.77
536.69	1264.73
537.05	1261.27
537.41	1255.14
537.76	1250.29
538.12	1246.34
538.47	1243.29
538.83	1235.85
539.18	1230.65
539.54	1224.38
539.89	1218.48
540.25	1215.09
540.60	1214.53
540.96	1213.12
541.31	1209.40
541.67	1206.41
542.02	1204.35
542.38	1198.42
542.73	1197.28
543.09	1194.73
543.44	1192.55
543.80	1192.13
544.15	1191.80
544.51	1185.22
544.86	1187.47
545.22	1184.76
545.57	1180.50
545.93	1179.02
546.28	1179.44
546.64	1175.53
546.99	1172.98
547.35	1169.47
547.70	1165.98
548.05	1162.82
548.41	1158.59
548.76	1156.08
549.12	1154.33
549.47	1154.02
549.83	1151.80
550.18	1149.72
550.53	1148.55
550.89	1147.92
551.24	1145.22
551.60	1143.52
551.95	1145.90
552.30	1144.40
552.66	1143.84
553.01	1144.94
553.37	1145.11
553.72	1140.61
554.07	1140.36
554.43	1135.04
554.78	1131.18
555.13	1129.14
555.49	1129.19
555.84	1124.81
556.19	1126.80
556.55	1127.88
556.90	1125.42
557.26	1122.94
557.61	1123.88
557.96	1123.41
558.32	1118.94
558.67	1119.53
559.02	1119.74
559.37	1117.89
559.73	1119.13
560.08	1124.02
560.43	1122.59
560.79	1123.53
561.14	1125.61
561.49	1124.77
561.85	1117.96
562.20	1118.57
562.55	1117.42
562.90	1115.08
563.26	1111.92
563.61	1113.46
563.96	1109.81
564.32	1106.91
564.67	1105.48
565.02	1106.63
565.37	1104.71
565.73	1104.29
566.08	1105.18
566.43	1105.88
566.78	1104.66
567.14	1105.53
567.49	1106.02
567.84	1105.76
568.19	1103.42
568.54	1104.99
568.90	1104.10
569.25	1103.09
569.60	1100.89
569.95	1101.76
570.31	1100.19
570.66	1099.54
571.01	1101.41
571.36	1102.70
571.71	1099.84
572.06	1099.26
572.42	1101.13
572.77	1101.11
573.12	1101.74
573.47	1106.25
573.82	1105.72
574.18	1102.35
574.53	1100.52
574.88	1100.19
575.23	1099.89
575.58	1099.93
575.93	1098.23
576.28	1097.66
576.64	1095.56
576.99	1091.91
577.34	1091.72
577.69	1094.43
578.04	1093.64
578.39	1092.70
578.74	1094.39
579.09	1092.77
579.44	1093.29
579.80	1091.60
580.15	1095.30
580.50	1095.39
580.85	1093.47
581.20	1092.00
581.55	1092.63
581.90	1088.49
582.25	1088.70
582.60	1089.40
582.95	1090.27
583.30	1092.82
583.65	1094.50
584.00	1094.01
584.35	1095.91
584.71	1095.23
585.06	1094.13
585.41	1092.12
585.76	1093.87
586.11	1091.06
586.46	1092.23
586.81	1091.39
587.16	1095.16
587.51	1092.75
587.86	1095.86
588.21	1094.13
588.56	1094.25
588.91	1089.43
589.26	1089.05
589.61	1088.35
589.96	1086.64
590.31	1087.41
590.66	1086.48
591.01	1087.69
591.36	1087.30
591.71	1092.66
592.06	1090.20
592.41	1094.32
592.76	1091.74
593.10	1087.06
593.45	1083.69
593.80	1085.24
594.15	1083.69
594.50	1083.50
594.85	1088.19
595.20	1085.73
595.55	1086.38
595.90	1087.27
596.25	1086.03
596.60	1085.82
596.95	1087.74
597.30	1087.58
597.64	1100.75
597.99	1102.53
598.34	1101.55
598.69	1100.05
599.04	1099.12
599.39	1085.40
599.74	1089.12
600.09	1089.43
600.44	1090.92
600.78	1089.14
601.13	1088.70
601.48	1086.45
601.83	1085.87
602.18	1085.59
602.53	1088.19
602.88	1088.72
603.22	1084.98
603.57	1086.34
603.92	1086.17
604.27	1087.25
604.62	1085.99
604.97	1089.31
605.31	1084.81
605.66	1088.04
606.01	1086.15
606.36	1086.62
606.71	1084.91
607.05	1090.60
607.40	1086.52
607.75	1087.58
608.10	1087.46
608.44	1089.12
608.79	1087.83
609.14	1088.33
609.49	1086.76
609.84	1084.60
610.18	1085.12
610.53	1084.84
610.88	1082.92
611.23	1081.56
611.57	1083.06
611.92	1078.00
612.27	1076.46
612.62	1078.00
612.96	1079.85
613.31	1079.55
613.66	1084.14
614.00	1084.18
614.35	1082.69
614.70	1084.32
615.05	1083.88
615.39	1083.25
615.74	1084.00
616.09	1084.74
616.43	1081.68
616.78	1081.40
617.13	1082.17
617.47	1081.94
617.82	1082.57
618.17	1083.11
618.51	1084.37
618.86	1085.38
619.21	1085.10
619.55	1086.55
619.90	1086.36
620.25	1089.22
620.59	1089.57
620.94	1092.02
621.29	1089.99
621.63	1091.84
621.98	1089.89
622.32	1085.96
622.67	1083.46
623.02	1085.70
623.36	1085.40
623.71	1086.99
624.05	1086.45
624.40	1087.20
624.75	1085.94
625.09	1085.73
625.44	1085.40
625.78	1085.94
626.13	1084.28
626.48	1085.31
626.82	1081.05
627.17	1078.31
627.51	1076.67
627.86	1076.58
628.20	1075.29
628.55	1081.00
628.89	1082.61
629.24	1086.55
629.58	1086.31
629.93	1086.62
630.28	1083.13
630.62	1081.58
630.97	1080.06
631.31	1083.11
631.66	1083.41
632.00	1083.62
632.35	1086.99
632.69	1086.66
633.04	1086.03
633.38	1086.94
633.73	1088.96
634.07	1087.55
634.42	1088.09
634.76	1088.42
635.11	1088.58
635.45	1085.87
635.79	1082.43
636.14	1084.00
636.48	1080.16
636.83	1079.55
637.17	1081.96
637.52	1082.17
637.86	1081.87
638.21	1080.30
638.55	1074.28
638.89	1075.87
639.24	1077.91
639.58	1078.14
639.93	1083.55
640.27	1088.00
640.61	1088.56
640.96	1087.83
641.30	1085.33
641.65	1083.86
641.99	1082.47
642.33	1079.74
642.68	1081.68
643.02	1083.67
643.37	1082.97
643.71	1083.95
644.05	1085.82
644.40	1083.13
644.74	1081.19
645.08	1080.93
645.43	1080.11
645.77	1077.75
646.11	1078.92
646.46	1081.91
646.80	1083.55
647.14	1089.92
647.49	1091.46
647.83	1092.33
648.17	1093.69
648.52	1092.42
648.86	1085.87
649.20	1086.83
649.55	1086.01
649.89	1080.77
650.23	1081.87
650.57	1082.64
650.92	1081.00
651.26	1081.16
651.60	1083.48
651.95	1085.33
652.29	1086.62
652.63	1085.31
652.97	1085.07
653.32	1082.64
653.66	1079.81
654.00	1081.80
654.34	1082.38
654.69	1085.17
655.03	1086.73
655.37	1086.24
655.71	1084.42
656.05	1087.23
656.40	1082.59
656.74	1083.86
657.08	1085.99
657.42	1084.16
657.76	1080.65
658.11	1084.00
658.45	1079.55
658.79	1079.95
659.13	1081.80
659.47	1080.95
659.82	1076.69
660.16	1080.60
660.50	1080.41
660.84	1080.41
661.18	1082.01
661.52	1084.65
661.87	1086.62
662.21	1087.67
662.55	1088.07
662.89	1088.23
663.23	1088.04
663.57	1087.27
663.91	1084.60
664.25	1083.64
664.60	1084.28
664.94	1087.16
665.28	1084.79
665.62	1084.56
665.96	1083.20
666.30	1082.05
666.64	1077.40
666.98	1077.47
667.32	1079.36
667.66	1079.62
668.01	1083.67
668.35	1087.09
668.69	1090.01
669.03	1087.62
669.37	1093.40
669.71	1089.31
670.05	1086.29
670.39	1084.56
670.73	1084.30
671.07	1078.80
671.41	1078.50
671.75	1078.66
672.09	1079.88
672.43	1082.31
672.77	1084.74
673.11	1084.00
673.45	1085.61
673.79	1084.58
674.13	1080.53
674.47	1079.50
674.81	1083.62
675.15	1085.91
675.49	1087.46
675.83	1091.06
676.17	1090.90
676.51	1089.36
676.85	1086.87
677.19	1084.81
677.53	1083.71
677.87	1081.84
678.21	1080.65
678.55	1084.51
678.89	1080.93
679.23	1082.69
679.57	1085.49
679.90	1087.04
680.24	1082.52
680.58	1088.96
680.92	1085.49
681.26	1084.56
681.60	1085.75
681.94	1087.27
682.28	1086.03
682.62	1088.49
682.96	1088.26
683.29	1083.93
683.63	1080.02
683.97	1079.29
684.31	1077.14
684.65	1076.41
684.99	1079.08
685.33	1083.74
685.67	1080.88
686.00	1085.05
686.34	1087.41
686.68	1086.41
687.02	1085.59
687.36	1090.83
687.70	1089.40
688.03	1087.76
688.37	1088.44
688.71	1087.13
689.05	1083.50
689.39	1081.80
689.72	1079.99
690.06	1080.09
690.40	1079.43
690.74	1078.99
691.08	1079.08
691.41	1081.09
691.75	1080.91
692.09	1080.37
692.43	1081.35
692.76	1081.68
693.10	1082.54
693.44	1084.53
693.78	1085.42
694.11	1084.79
694.45	1087.88
694.79	1084.98
695.13	1084.02
695.46	1085.75
695.80	1088.63
696.14	1085.54
696.48	1085.73
696.81	1084.56
697.15	1084.77
697.49	1081.80
697.82	1083.88
698.16	1085.03
698.50	1085.52
698.83	1084.60
699.17	1084.63
699.51	1084.14
699.84	1084.44
700.18	1081.47
700.52	1081.96
700.85	1084.28
701.19	1083.01
701.53	1080.95
701.86	1084.07
702.20	1085.26
702.54	1083.55
702.87	1080.98
703.21	1085.24
703.55	1083.18
703.88	1080.46
704.22	1081.66
704.55	1085.14
704.89	1082.47
705.23	1081.94
705.56	1083.43
705.90	1081.82
706.23	1080.84
706.57	1081.73
706.91	1085.05
707.24	1084.16
707.58	1085.40
707.91	1085.61
708.25	1087.23
708.58	1082.90
708.92	1082.61
709.26	1081.77
709.59	1080.58
709.93	1078.54
710.26	1083.20
710.60	1084.35
710.93	1085.10
711.27	1084.00
711.60	1085.99
711.94	1083.06
712.27	1081.89
712.61	1080.18
712.94	1080.58
713.28	1077.79
713.61	1078.00
713.95	1074.77
714.28	1075.41
714.62	1077.07
714.95	1077.18
715.29	1075.99
715.62	1077.93
715.96	1077.93
716.29	1078.31
716.63	1079.10
716.96	1083.11
717.29	1083.55
717.63	1084.37
717.96	1085.45
718.30	1084.07
718.63	1082.71
718.97	1082.36
719.30	1082.38
719.63	1084.42
719.97	1084.51
720.30	1084.28
720.64	1088.49
720.97	1086.94
721.30	1083.90
721.64	1086.24
721.97	1086.69
722.31	1084.21
722.64	1085.84
722.97	1084.56
723.31	1082.33
723.64	1078.38
723.97	1078.71
724.31	1077.61
724.64	1079.08
724.98	1079.74
725.31	1084.18
725.64	1084.89
725.98	1085.35
726.31	1084.72
726.64	1083.04
726.97	1082.36
727.31	1079.74
727.64	1078.75
727.97	1077.42
728.31	1078.71
728.64	1076.97
728.97	1079.08
729.31	1079.46
729.64	1079.20
729.97	1078.92
730.30	1080.79
730.64	1080.98
730.97	1081.82
731.30	1082.76
731.63	1082.45
731.97	1080.95
732.30	1082.40
732.63	1082.03
732.96	1082.85
733.30	1080.53
733.63	1080.60
733.96	1078.68
734.29	1079.10
734.63	1078.94
734.96	1083.50
735.29	1084.28
735.62	1083.55
735.95	1081.91
736.29	1080.53
736.62	1080.53
736.95	1080.13
737.28	1078.85
737.61	1078.21
737.94	1080.93
738.28	1080.30
738.61	1080.09
738.94	1082.83
739.27	1085.49
739.60	1082.10
739.93	1082.66
740.27	1083.43
740.60	1083.11
740.93	1083.13
741.26	1082.29
741.59	1082.92
741.92	1080.86
742.25	1080.67
742.58	1080.06
742.91	1082.15
743.25	1078.85
743.58	1079.10
743.91	1076.34
744.24	1077.63
744.57	1075.78
744.90	1077.47
745.23	1080.18
745.56	1081.33
745.89	1081.54
746.22	1087.76
746.55	1088.65
746.88	1086.24
747.21	1086.50
747.54	1081.33
747.87	1078.43
748.20	1077.21
748.53	1077.96
748.87	1077.37
749.20	1084.02
749.53	1080.95
749.86	1080.81
750.19	1079.06
750.52	1079.55
750.85	1076.69
751.18	1080.88
751.51	1080.27
751.84	1082.33
752.16	1082.40
752.49	1077.98
752.82	1076.69
753.15	1079.41
753.48	1080.63
753.81	1082.76
754.14	1086.10
754.47	1084.72
754.80	1084.00
755.13	1083.34
755.46	1082.97
755.79	1081.14
756.12	1081.37
756.45	1078.94
756.78	1077.04
757.11	1075.15
757.43	1076.74
757.76	1074.52
758.09	1075.73
758.42	1075.92
758.75	1078.31
759.08	1079.38
759.41	1081.73
759.74	1079.57
760.07	1080.11
760.39	1080.46
760.72	1080.51
761.05	1079.01
761.38	1081.19
761.71	1079.13
762.04	1075.41
762.36	1076.72
762.69	1077.49
763.02	1077.93
763.35	1081.51
763.68	1083.20
764.01	1081.96
764.33	1083.01
764.66	1080.74
764.99	1080.20
765.32	1080.34
765.65	1081.40
765.97	1080.51
766.30	1082.45
766.63	1081.05
766.96	1079.31
767.28	1077.91
767.61	1078.33
767.94	1077.49
768.27	1078.52
768.59	1079.48
768.92	1081.56
769.25	1081.70
769.58	1080.30
769.90	1078.43
770.23	1080.02
770.56	1081.21
770.89	1081.61
771.21	1083.62
771.54	1083.57
771.87	1081.89
772.19	1077.00
772.52	1078.57
772.85	1080.04
773.17	1083.01
773.50	1082.38
773.83	1083.20
774.15	1080.44
774.48	1078.99
774.81	1077.25
775.13	1078.43
775.46	1076.86
775.79	1078.47
776.11	1075.01
776.44	1075.76
776.77	1074.19
777.09	1074.05
777.42	1075.62
777.74	1080.84
778.07	1082.94
778.40	1083.48
778.72	1083.97
779.05	1083.43
779.37	1082.15
779.70	1080.95
780.03	1081.35
780.35	1083.20
780.68	1081.82
781.00	1079.22
781.33	1077.33
781.65	1079.69
781.98	1081.77
782.31	1082.05
782.63	1083.86
782.96	1082.92
783.28	1080.41
783.61	1074.59
783.93	1075.01
784.26	1073.79
784.58	1076.11
784.91	1077.11
785.23	1080.41
785.56	1076.15
785.88	1077.68
786.21	1076.46
786.53	1076.04
786.86	1074.40
787.18	1077.28
787.51	1075.78
787.83	1075.97
788.16	1075.80
788.48	1077.56
788.81	1080.13
789.13	1079.38
789.46	1077.77
789.78	1076.67
790.10	1076.81
790.43	1074.68
790.75	1076.76
791.08	1079.85
791.40	1080.84
791.73	1081.40
792.05	1078.94
792.37	1077.58
792.70	1075.59
793.02	1074.66
793.35	1074.14
793.67	1074.61
793.99	1076.27
794.32	1078.12
794.64	1077.44
794.96	1076.39
795.29	1076.65
795.61	1076.44
795.93	1075.57
796.26	1078.00
796.58	1080.13
796.91	1082.83
797.23	1081.37
797.55	1080.58
797.87	1081.21
798.20	1077.42
798.52	1077.79
798.84	1075.69
799.17	1076.01
799.49	1075.15
799.81	1076.20
800.14	1075.80
800.46	1078.45
800.78	1079.60
801.10	1081.56
801.43	1084.09
801.75	1081.56
802.07	1078.94
802.40	1079.71
802.72	1074.31
803.04	1071.52
803.36	1074.54
803.69	1077.65
804.01	1074.89
804.33	1077.44
804.65	1080.74
804.97	1082.71
805.30	1083.27
805.62	1085.49
805.94	1086.85
806.26	1085.12
806.58	1079.57
806.91	1080.74
807.23	1079.20
807.55	1078.64
807.87	1082.69
808.19	1081.07
808.52	1076.97
808.84	1079.06
809.16	1080.79
809.48	1076.79
809.80	1079.36
810.12	1082.26
810.44	1078.52
810.77	1077.00
811.09	1077.84
811.41	1079.57
811.73	1080.91
812.05	1084.79
812.37	1085.03
812.69	1083.39
813.01	1082.43
813.33	1081.70
813.66	1076.13
813.98	1076.44
814.30	1077.07
814.62	1075.76
814.94	1077.63
815.26	1081.68
815.58	1081.89
815.90	1081.73
816.22	1084.21
816.54	1080.93
816.86	1080.72
817.18	1080.88
817.50	1082.78
817.82	1081.80
818.14	1080.30
818.46	1081.49
818.78	1079.95
819.10	1076.46
819.42	1077.44
819.74	1080.88
820.06	1079.34
820.38	1079.76
820.70	1082.47
821.02	1081.80
821.34	1081.16
821.66	1081.26
821.98	1082.31
822.30	1081.02
822.62	1081.58
822.94	1082.97
823.26	1081.37
823.58	1078.73
823.90	1080.60
824.22	1078.92
824.54	1076.32
824.86	1076.32
825.18	1076.79
825.50	1074.33
825.81	1075.71
826.13	1075.64
826.45	1075.03
826.77	1078.24
827.09	1080.72
827.41	1079.41
827.73	1079.57
828.05	1082.24
828.36	1080.16
828.68	1077.44
829.00	1079.08
829.32	1083.55
829.64	1084.74
829.96	1082.83
830.28	1084.98
830.59	1084.58
830.91	1078.96
831.23	1076.83
831.55	1076.41
831.87	1074.54
832.19	1073.14
832.50	1076.72
832.82	1078.61
833.14	1082.57
833.46	1082.94
833.78	1081.70
834.09	1080.04
834.41	1079.83
834.73	1075.73
835.05	1076.18
835.36	1080.06
835.68	1076.74
836.00	1072.32
836.32	1074.26
836.63	1076.79
836.95	1075.78
837.27	1076.72
837.59	1079.41
837.90	1082.24
838.22	1080.60
838.54	1079.48
838.85	1081.63
839.17	1081.33
839.49	1079.08
839.80	1079.60
840.12	1081.26
840.44	1080.88
840.76	1081.28
841.07	1080.02
841.39	1079.34
841.71	1080.74
842.02	1081.94
842.34	1078.87
842.65	1077.42
842.97	1075.38
843.29	1074.07
843.60	1070.19
843.92	1073.07
844.24	1078.66
844.55	1083.01
844.87	1082.29
845.18	1085.75
845.50	1086.03
845.82	1083.27
846.13	1082.19
846.45	1083.25
846.76	1084.70
847.08	1082.92
847.40	1083.71
847.71	1084.11
848.03	1079.36
848.34	1076.62
848.66	1079.81
848.97	1081.37
849.29	1078.64
849.60	1082.38
849.92	1082.54
850.24	1082.15
850.55	1078.17
850.87	1078.73
851.18	1077.98
851.50	1077.75
851.81	1077.33
852.13	1080.98
852.44	1081.35
852.76	1082.08
853.07	1083.60
853.39	1083.83
853.70	1082.52
854.01	1085.24
854.33	1083.57
854.64	1082.61
854.96	1082.73
855.27	1081.37
855.59	1077.18
855.90	1076.83
856.22	1075.48
856.53	1075.85
856.84	1072.53
857.16	1072.78
857.47	1073.77
857.79	1075.87
858.10	1074.73
858.41	1077.70
858.73	1076.88
859.04	1076.37
859.36	1073.21
859.67	1071.97
859.98	1071.33
860.30	1071.73
860.61	1070.91
860.92	1074.21
861.24	1074.40
861.55	1074.63
861.87	1077.98
862.18	1078.36
862.49	1076.32
862.81	1079.20
863.12	1081.75
863.43	1079.31
863.74	1078.10
864.06	1077.68
864.37	1077.02
864.68	1076.41
865.00	1076.39
865.31	1078.57
865.62	1079.29
865.94	1078.54
866.25	1076.25
866.56	1076.81
866.87	1074.68
867.19	1077.23
867.50	1078.19
867.81	1079.41
868.12	1079.53
868.44	1083.48
868.75	1083.32
869.06	1082.31
869.37	1080.81
869.68	1080.56
870.00	1080.06
870.31	1080.25
870.62	1080.63
870.93	1086.45
871.24	1085.63
871.56	1086.10
871.87	1086.17
872.18	1085.45
872.49	1080.98
872.80	1081.07
873.12	1078.33
873.43	1076.37
873.74	1079.06
874.05	1078.14
874.36	1080.13
874.67	1078.10
874.98	1079.10
875.29	1077.09
875.61	1076.79
875.92	1076.06
876.23	1081.80
876.54	1081.68
876.85	1082.19
877.16	1084.18
877.47	1083.32
877.78	1080.09
878.09	1079.13
878.40	1075.69
878.72	1073.63
879.03	1073.84
879.34	1075.17
879.65	1074.61
879.96	1075.83
880.27	1075.50
880.58	1074.42
880.89	1073.37
881.20	1073.25
881.51	1072.81
881.82	1072.41
882.13	1072.13
882.44	1071.87
882.75	1072.18
883.06	1071.33
883.37	1074.17
883.68	1075.48
883.99	1076.27
884.30	1080.04
884.61	1086.20
884.92	1086.71
885.23	1087.02
885.54	1084.16
885.85	1082.99
886.16	1082.24
886.47	1079.38
886.78	1081.09
887.08	1081.66
887.39	1082.36
887.70	1079.08
888.01	1082.40
888.32	1078.36
888.63	1082.45
888.94	1078.99
889.25	1080.39
889.56	1075.85
889.87	1075.29
890.17	1072.71
890.48	1075.87
890.79	1076.58
891.10	1080.60
891.41	1082.38
891.72	1080.25
892.03	1078.33
892.34	1076.08
892.64	1074.94
892.95	1075.08
893.26	1077.09
893.57	1073.63
893.88	1073.79
894.18	1074.38
894.49	1074.66
894.80	1075.87
895.11	1076.41
895.42	1076.23
895.72	1076.44
896.03	1077.40
896.34	1076.27
896.65	1078.99
896.96	1079.64
897.26	1077.84
897.57	1080.09
897.88	1080.02
898.19	1080.84
898.49	1083.36
898.80	1084.53
899.11	1081.28
899.41	1084.09
899.72	1082.85
900.03	1079.17
900.34	1080.44
900.64	1081.96
900.95	1080.53
901.26	1081.30
901.56	1084.16
901.87	1083.67
902.18	1086.24
902.48	1083.34
902.79	1084.42
903.10	1081.30
903.40	1081.47
903.71	1079.48
904.02	1081.28
904.32	1076.97
904.63	1079.57
904.94	1078.61
905.24	1080.51
905.55	1079.20
905.85	1083.95
906.16	1081.94
906.47	1082.24
906.77	1079.62
907.08	1079.01
907.38	1076.01
907.69	1074.80
908.00	1073.77
908.30	1074.14
908.61	1079.85
908.91	1080.23
909.22	1081.63
909.52	1082.66
909.83	1080.46
910.14	1080.46
910.44	1082.40
910.75	1083.32
911.05	1083.57
911.36	1086.48
911.66	1083.50
911.97	1082.22
912.27	1079.71
912.58	1076.83
912.88	1072.48
913.19	1071.66
913.49	1069.55
913.80	1070.26
914.10	1072.67
914.41	1076.72
914.71	1077.16
915.01	1077.25
915.32	1077.84
915.62	1077.09
915.93	1075.76
916.23	1076.32
916.54	1077.82
916.84	1079.95
917.15	1081.05
917.45	1082.05
917.75	1080.77
918.06	1079.48
918.36	1081.05
918.67	1083.71
918.97	1081.89
919.27	1079.92
919.58	1082.15
919.88	1077.49
920.18	1073.18
920.49	1072.88
920.79	1074.35
921.10	1072.41
921.40	1076.93
921.70	1079.83
922.01	1077.37
922.31	1077.09
922.61	1078.26
922.92	1076.39
923.22	1075.10
923.52	1077.72
923.82	1079.83
924.13	1080.65
924.43	1080.48
924.73	1076.97
925.04	1078.38
925.34	1078.05
925.64	1076.01
925.94	1074.68
926.25	1075.78
926.55	1074.70
926.85	1075.41
927.15	1077.54
927.46	1079.38
927.76	1082.71
928.06	1082.90
928.36	1080.18
928.67	1080.86
928.97	1080.13
929.27	1076.48
929.57	1075.22
929.87	1077.21
930.18	1076.95
930.48	1077.58
930.78	1079.90
931.08	1082.31
931.38	1083.27
931.69	1082.40
931.99	1081.68
932.29	1079.13
932.59	1077.58
932.89	1073.49
933.19	1071.22
933.49	1070.61
933.80	1074.10
934.10	1074.26
934.40	1073.84
934.70	1077.33
935.00	1078.38
935.30	1077.65
935.60	1078.89
935.90	1082.80
936.20	1081.77
936.50	1082.85
936.81	1083.36
937.11	1083.41
937.41	1083.50
937.71	1082.17
938.01	1079.41
938.31	1080.13
938.61	1079.97
938.91	1079.17
939.21	1080.11
939.51	1081.19
939.81	1081.02
940.11	1081.98
940.41	1083.15
940.71	1082.47
941.01	1083.67
941.31	1083.93
941.61	1081.00
941.91	1079.15
942.21	1081.05
942.51	1080.86
942.81	1079.06
943.11	1081.63
943.41	1081.51
943.71	1081.89
944.01	1080.30
944.31	1079.41
944.61	1076.69
944.90	1078.61
945.20	1076.13
945.50	1077.56
945.80	1079.48
946.10	1082.47
946.40	1080.84
946.70	1079.48
947.00	1080.23
947.30	1079.38
947.60	1079.29
947.89	1078.21
948.19	1080.04
948.49	1075.41
948.79	1075.27
949.09	1074.42
949.39	1074.91
949.69	1075.87
949.98	1079.76
950.28	1076.93
950.58	1076.41
950.88	1077.04
951.18	1073.49
951.48	1071.94
951.77	1076.08
952.07	1076.20
952.37	1078.31
952.67	1081.21
952.97	1080.13
953.26	1080.32
953.56	1080.56
953.86	1077.02
954.16	1073.91
954.45	1076.32
954.75	1073.02
955.05	1075.50
955.35	1079.57
955.64	1081.75
955.94	1080.74
956.24	1082.73
956.54	1078.43
956.83	1075.97
957.13	1075.55
957.43	1074.68
957.72	1072.97
958.02	1072.53
958.32	1073.32
958.61	1073.44
958.91	1072.90
959.21	1074.40
959.50	1074.75
959.80	1075.73
960.10	1074.38
960.39	1074.54
960.69	1074.91
960.99	1077.14
961.28	1075.57
961.58	1077.23
961.87	1080.77
962.17	1080.91
962.47	1079.31
962.76	1080.41
963.06	1083.06
963.36	1081.16
963.65	1082.76
963.95	1086.24
964.24	1086.80
964.54	1084.96
964.83	1085.21
965.13	1083.93
965.42	1080.46
965.72	1079.01
966.02	1080.39
966.31	1078.85
966.61	1079.29
966.90	1080.74
967.20	1079.46
967.49	1079.62
967.79	1079.71
968.08	1079.74
968.38	1081.23
968.67	1079.48
968.97	1075.78
969.26	1078.40
969.56	1074.94
969.85	1072.36
970.15	1076.62
970.44	1080.93
970.74	1079.69
971.03	1083.22
971.32	1084.74
971.62	1081.96
971.91	1082.08
972.21	1080.20
972.50	1078.19
972.80	1078.80
973.09	1079.13
973.38	1076.76
973.68	1077.37
973.97	1079.20
974.27	1079.22
974.56	1082.03
974.85	1086.01
975.15	1088.84
975.44	1089.31
975.73	1087.51
976.03	1083.95
976.32	1081.14
976.61	1079.13
976.91	1075.29
977.20	1076.72
977.49	1075.92
977.79	1074.17
978.08	1074.49
978.37	1075.31
978.67	1073.00
978.96	1075.78
979.25	1073.86
979.55	1074.66
979.84	1076.58
980.13	1078.64
980.42	1076.95
980.72	1079.76
981.01	1076.58
981.30	1074.05
981.59	1074.33
981.89	1075.87
982.18	1075.45
982.47	1076.86
982.76	1079.10
983.06	1076.34
983.35	1075.83
983.64	1074.52
983.93	1074.19
984.22	1075.24
984.52	1078.54
984.81	1079.55
985.10	1082.12
985.39	1083.81
985.68	1081.80
985.97	1081.19
986.27	1078.36
986.56	1078.68
986.85	1077.37
987.14	1079.10
987.43	1076.65
987.72	1077.72
988.01	1073.30
988.31	1073.98
988.60	1073.00
988.89	1072.97
989.18	1073.77
989.47	1075.87
989.76	1075.01
990.05	1074.87
990.34	1077.35
990.63	1076.69
990.92	1077.47
991.21	1077.86
991.51	1077.65
991.80	1078.94
992.09	1080.51
992.38	1082.36
992.67	1083.83
992.96	1086.03
993.25	1084.09
993.54	1083.81
993.83	1081.82
994.12	1080.67
994.41	1080.84
994.70	1078.50
994.99	1077.91
995.28	1079.43
995.57	1076.41
995.86	1076.11
996.15	1076.86
996.44	1079.38
996.73	1078.64
997.02	1081.21
997.31	1082.31
997.59	1084.49
997.88	1082.10
998.17	1082.19
998.46	1085.59
998.75	1083.27
999.04	1082.15
999.33	1081.68
999.62	1080.27
999.91	1078.99
1000.20	1080.39
1000.49	1077.14
1000.77	1077.68
1001.06	1079.15
1001.35	1077.21
1001.64	1076.93
1001.93	1077.96
1002.22	1077.54
1002.51	1076.11
1002.79	1077.21
1003.08	1075.43
1003.37	1077.58
1003.66	1078.71
1003.95	1079.06
1004.23	1074.66
1004.52	1075.64
1004.81	1074.96
1005.10	1074.82
1005.39	1075.62
1005.67	1078.85
1005.96	1078.96
1006.25	1082.54
1006.54	1081.37
1006.83	1080.18
1007.11	1079.62
1007.40	1078.61
1007.69	1076.11
1007.97	1079.43
1008.26	1081.21
1008.55	1082.94
1008.84	1084.39
1009.12	1083.11
1009.41	1077.51
1009.70	1076.06
1009.98	1074.42
1010.27	1070.14
1010.56	1071.22
1010.85	1077.54
1011.13	1078.96
1011.42	1080.39
1011.71	1079.22
1011.99	1079.36
1012.28	1073.74
1012.56	1074.52
1012.85	1074.24
1013.14	1077.23
1013.42	1076.46
1013.71	1078.47
1014.00	1077.65
1014.28	1076.53
1014.57	1077.79
1014.85	1080.56
1015.14	1081.35
1015.43	1080.46
1015.71	1081.21
1016.00	1081.21
1016.28	1077.30
1016.57	1078.05
1016.85	1078.10
1017.14	1079.03
1017.43	1076.88
1017.71	1079.03
1018.00	1077.61
1018.28	1075.99
1018.57	1074.21
1018.85	1077.49
1019.14	1077.04
1019.42	1072.97
1019.71	1075.03
1019.99	1076.95
1020.28	1076.88
1020.56	1077.58
1020.85	1082.85
1021.13	1082.31
1021.42	1082.87
1021.70	1082.97
1021.99	1080.46
1022.27	1077.75
1022.55	1069.86
1022.84	1070.68
>>>>>End Processed Spectral Data<<<<<
