SpectraSuite Data File
++++++++++++++++++++++++++++++++++++
Date: Mon Aug 26 10:22:32 PDT 2019
User: corrico
Dark Spectrum Present: No
Reference Spectrum Present: No
Number of Sampled Component Spectra: 1
Spectrometers: USB2+H06089
Integration Time (usec): 2000 (USB2+H06089)
Spectra Averaged: 20 (USB2+H06089)
Boxcar Smoothing: 2 (USB2+H06089)
Correct for Electrical Dark: No (USB2+H06089)
Strobe/Lamp Enabled: No (USB2+H06089)
Correct for Detector Non-linearity: No (USB2+H06089)
Correct for Stray Light: No (USB2+H06089)
Number of Pixels in Processed Spectrum: 2048
>>>>>Begin Processed Spectral Data<<<<<
339.70	1042.01
340.07	1042.01
340.45	1000.46
340.82	976.26
341.19	950.12
341.57	925.92
341.94	917.72
342.31	909.44
342.69	904.76
343.06	903.31
343.43	899.63
343.81	902.02
344.18	902.79
344.55	908.17
344.93	910.87
345.30	917.70
345.67	922.01
346.04	929.78
346.42	934.86
346.79	945.53
347.16	949.86
347.54	960.79
347.91	973.64
348.28	985.46
348.65	994.40
349.03	1006.66
349.40	1015.70
349.77	1020.87
350.14	1027.42
350.52	1035.08
350.89	1040.04
351.26	1043.04
351.63	1053.92
352.01	1060.03
352.38	1061.62
352.75	1067.75
353.12	1074.17
353.50	1077.30
353.87	1080.09
354.24	1083.06
354.61	1083.13
354.98	1083.95
355.36	1079.62
355.73	1078.94
356.10	1077.84
356.47	1079.03
356.84	1081.58
357.22	1085.00
357.59	1088.30
357.96	1092.63
358.33	1094.79
358.70	1090.03
359.08	1089.19
359.45	1084.74
359.82	1082.59
360.19	1080.58
360.56	1082.52
360.94	1081.56
361.31	1080.86
361.68	1081.09
362.05	1079.78
362.42	1079.78
362.79	1079.50
363.16	1080.79
363.54	1077.89
363.91	1076.79
364.28	1077.68
364.65	1077.77
365.02	1078.40
365.39	1080.30
365.76	1081.94
366.14	1081.14
366.51	1079.48
366.88	1079.43
367.25	1079.60
367.62	1079.03
367.99	1076.46
368.36	1075.03
368.73	1073.51
369.10	1071.94
369.48	1069.79
369.85	1068.69
370.22	1070.40
370.59	1069.79
370.96	1069.84
371.33	1070.44
371.70	1071.92
372.07	1071.03
372.44	1071.61
372.81	1074.26
373.18	1076.37
373.55	1078.10
373.93	1078.68
374.30	1078.57
374.67	1077.63
375.04	1076.39
375.41	1076.30
375.78	1077.89
376.15	1079.90
376.52	1079.24
376.89	1081.56
377.26	1079.57
377.63	1077.33
378.00	1076.46
378.37	1079.67
378.74	1079.46
379.11	1077.77
379.48	1078.36
379.85	1078.82
380.22	1077.23
380.59	1076.93
380.96	1079.03
381.33	1079.01
381.70	1076.48
382.07	1076.65
382.44	1076.86
382.81	1077.98
383.18	1082.24
383.55	1082.66
383.92	1083.76
384.29	1081.96
384.66	1081.82
385.03	1077.79
385.40	1081.61
385.77	1076.67
386.14	1080.67
386.51	1083.43
386.88	1088.16
387.25	1086.99
387.62	1091.20
387.99	1091.42
388.36	1089.99
388.73	1089.36
389.10	1093.10
389.46	1090.08
389.83	1085.77
390.20	1083.27
390.57	1081.68
390.94	1076.58
391.31	1077.49
391.68	1077.37
392.05	1078.40
392.42	1080.09
392.79	1082.69
393.16	1083.06
393.53	1087.30
393.89	1087.74
394.26	1087.79
394.63	1086.94
395.00	1086.10
395.37	1085.33
395.74	1084.39
396.11	1082.73
396.48	1083.15
396.84	1084.49
397.21	1084.93
397.58	1088.33
397.95	1086.71
398.32	1088.79
398.69	1088.37
399.06	1087.83
399.42	1087.32
399.79	1089.12
400.16	1088.04
400.53	1091.09
400.90	1091.65
401.27	1089.87
401.64	1086.90
402.00	1086.99
402.37	1086.06
402.74	1086.64
403.11	1091.11
403.48	1095.11
403.84	1093.52
404.21	1092.77
404.58	1092.16
404.95	1085.99
405.32	1086.69
405.68	1089.38
406.05	1092.05
406.42	1091.18
406.79	1098.04
407.16	1096.54
407.52	1094.55
407.89	1092.45
408.26	1091.65
408.63	1086.71
408.99	1089.75
409.36	1088.72
409.73	1088.51
410.10	1090.55
410.47	1092.28
410.83	1093.50
411.20	1096.12
411.57	1101.06
411.94	1102.21
412.30	1102.58
412.67	1100.54
413.04	1100.71
413.40	1098.79
413.77	1099.02
414.14	1099.79
414.51	1098.23
414.87	1099.96
415.24	1098.86
415.61	1097.76
415.97	1100.36
416.34	1102.74
416.71	1102.30
417.08	1104.03
417.44	1104.12
417.81	1102.58
418.18	1104.50
418.54	1104.41
418.91	1105.83
419.28	1110.58
419.64	1113.35
420.01	1109.20
420.38	1110.75
420.74	1112.27
421.11	1111.80
421.48	1112.01
421.84	1117.77
422.21	1119.71
422.58	1120.93
422.94	1121.70
423.31	1123.36
423.68	1125.80
424.04	1128.51
424.41	1132.26
424.77	1136.70
425.14	1142.16
425.51	1144.87
425.87	1148.90
426.24	1151.47
426.61	1154.61
426.97	1159.71
427.34	1168.75
427.70	1178.04
428.07	1186.77
428.44	1196.18
428.80	1201.26
429.17	1208.49
429.53	1214.81
429.90	1222.74
430.27	1229.55
430.63	1242.24
431.00	1251.53
431.36	1263.66
431.73	1273.30
432.09	1288.70
432.46	1299.25
432.83	1313.95
433.19	1329.17
433.56	1352.17
433.92	1371.93
434.29	1393.25
434.65	1417.69
435.02	1439.29
435.38	1464.59
435.75	1487.93
436.11	1519.85
436.48	1550.84
436.84	1585.34
437.21	1618.48
437.57	1661.83
437.94	1703.42
438.30	1747.96
438.67	1799.57
439.03	1853.54
439.40	1906.25
439.76	1963.38
440.13	2020.54
440.49	2080.81
440.86	2142.22
441.22	2216.28
441.59	2288.67
441.95	2370.54
442.32	2455.15
442.68	2548.49
443.05	2639.02
443.41	2739.69
443.78	2839.54
444.14	2946.80
444.51	3059.38
444.87	3197.01
445.24	3339.22
445.60	3489.18
445.96	3643.70
446.33	3813.97
446.69	3976.36
447.06	4148.20
447.42	4333.90
447.79	4528.21
448.15	4742.72
448.51	4969.80
448.88	5228.80
449.24	5472.31
449.61	5748.73
449.97	6024.96
450.33	6305.66
450.70	6572.18
451.06	6895.97
451.43	7204.92
451.79	7572.64
452.15	7969.03
452.52	8416.61
452.88	8883.48
453.24	9416.82
453.61	9986.95
453.97	10549.96
454.34	11098.96
454.70	11746.31
455.06	12371.84
455.43	12996.06
455.79	13593.48
456.15	14291.15
456.52	14934.65
456.88	15707.80
457.24	16424.43
457.61	17271.19
457.97	18043.56
458.33	18814.19
458.70	19590.94
459.06	20368.75
459.42	21211.43
459.79	21984.46
460.15	22897.30
460.51	23740.24
460.88	24655.44
461.24	25432.45
461.60	26387.95
461.96	27240.18
462.33	28069.95
462.69	28844.79
463.05	29698.80
463.42	30408.22
463.78	31054.13
464.14	31597.28
464.50	32181.06
464.87	32639.05
465.23	32991.96
465.59	33345.40
465.95	33641.29
466.32	33890.68
466.68	34126.67
467.04	34261.53
467.40	34395.46
467.77	34565.83
468.13	34566.32
468.49	34462.07
468.85	34375.66
469.22	34199.44
469.58	33834.90
469.94	33576.81
470.30	33278.35
470.66	32861.87
471.03	32267.14
471.39	31889.96
471.75	31240.82
472.11	30617.25
472.47	30247.61
472.84	29938.12
473.20	29444.57
473.56	29168.51
473.92	28748.29
474.28	28249.49
474.65	27761.80
475.01	27292.47
475.37	26733.06
475.73	26286.07
476.09	25754.15
476.45	25224.00
476.81	24705.06
477.18	24168.77
477.54	23728.61
477.90	23396.51
478.26	22979.59
478.62	22648.40
478.98	22381.16
479.34	22056.86
479.71	21638.37
480.07	21317.27
480.43	20961.84
480.79	20581.06
481.15	20231.38
481.51	19938.44
481.87	19697.29
482.23	19419.99
482.59	19161.57
482.96	18887.23
483.32	18582.40
483.68	18201.88
484.04	17857.70
484.40	17490.31
484.76	17114.86
485.12	16753.32
485.48	16434.84
485.84	16082.59
486.20	15732.92
486.56	15378.33
486.92	15059.10
487.28	14705.91
487.64	14351.65
488.00	14024.54
488.37	13696.74
488.73	13353.97
489.09	13009.33
489.45	12692.54
489.81	12381.11
490.17	12085.03
490.53	11794.22
490.89	11484.00
491.25	11185.68
491.61	10883.12
491.97	10564.80
492.33	10235.84
492.69	9946.20
493.05	9652.21
493.41	9353.48
493.77	9076.64
494.13	8830.33
494.49	8585.76
494.85	8348.01
495.21	8123.13
495.57	7910.94
495.93	7690.11
496.29	7485.92
496.64	7300.32
497.00	7114.88
497.36	6927.87
497.72	6754.13
498.08	6578.87
498.44	6402.96
498.80	6233.46
499.16	6078.16
499.52	5920.57
499.88	5796.24
500.24	5677.95
500.60	5563.31
500.96	5441.79
501.32	5329.10
501.68	5196.39
502.03	5064.26
502.39	4938.23
502.75	4811.13
503.11	4685.52
503.47	4568.42
503.83	4450.76
504.19	4326.41
504.55	4218.35
504.91	4122.48
505.26	4026.49
505.62	3936.69
505.98	3854.84
506.34	3769.22
506.70	3674.76
507.06	3587.13
507.42	3501.77
507.78	3427.93
508.13	3348.16
508.49	3273.96
508.85	3207.87
509.21	3143.64
509.57	3069.14
509.93	3006.09
510.28	2940.95
510.64	2872.59
511.00	2807.75
511.36	2752.10
511.72	2693.61
512.07	2646.00
512.43	2598.09
512.79	2546.22
513.15	2498.62
513.51	2456.37
513.86	2411.43
514.22	2371.90
514.58	2337.35
514.94	2301.87
515.30	2263.51
515.65	2226.53
516.01	2190.58
516.37	2159.59
516.73	2126.77
517.08	2100.33
517.44	2069.99
517.80	2038.37
518.16	2005.91
518.51	1976.07
518.87	1947.44
519.23	1921.16
519.59	1902.74
519.94	1876.88
520.30	1855.74
520.66	1831.35
521.01	1813.00
521.37	1787.77
521.73	1767.97
522.09	1749.71
522.44	1733.35
522.80	1714.07
523.16	1696.54
523.51	1678.37
523.87	1655.16
524.23	1631.10
524.58	1607.74
524.94	1584.33
525.30	1563.99
525.65	1549.76
526.01	1535.13
526.37	1524.25
526.72	1516.81
527.08	1507.38
527.44	1495.70
527.79	1484.98
528.15	1473.77
528.51	1458.74
528.86	1445.40
529.22	1429.97
529.58	1417.78
529.93	1401.91
530.29	1393.65
530.65	1381.34
531.00	1373.61
531.36	1363.95
531.71	1357.53
532.07	1343.35
532.43	1339.23
532.78	1333.99
533.14	1326.94
533.49	1320.93
533.85	1320.13
534.21	1314.28
534.56	1304.76
534.92	1299.40
535.27	1295.16
535.63	1286.52
535.98	1279.17
536.34	1273.32
536.69	1266.56
537.05	1258.88
537.41	1253.78
537.76	1248.91
538.12	1248.96
538.47	1248.75
538.83	1242.36
539.18	1239.15
539.54	1234.94
539.89	1227.00
540.25	1222.11
540.60	1220.03
540.96	1213.80
541.31	1208.30
541.67	1203.57
542.02	1199.99
542.38	1201.56
542.73	1199.36
543.09	1197.04
543.44	1196.39
543.80	1190.35
544.15	1185.60
544.51	1184.57
544.86	1182.70
545.22	1181.13
545.57	1179.47
545.93	1174.50
546.28	1170.67
546.64	1170.27
546.99	1169.36
547.35	1168.47
547.70	1165.24
548.05	1165.42
548.41	1162.92
548.76	1158.33
549.12	1157.02
549.47	1155.08
549.83	1152.41
550.18	1149.91
550.53	1148.81
550.89	1146.98
551.24	1146.37
551.60	1144.45
551.95	1143.12
552.30	1142.18
552.66	1136.87
553.01	1134.95
553.37	1133.92
553.72	1131.56
554.07	1128.49
554.43	1133.12
554.78	1135.35
555.13	1134.36
555.49	1131.58
555.84	1130.53
556.19	1123.39
556.55	1118.03
556.90	1117.82
557.26	1118.21
557.61	1119.48
557.96	1120.55
558.32	1121.89
558.67	1121.37
559.02	1121.68
559.37	1122.54
559.73	1123.43
560.08	1122.54
560.43	1120.48
560.79	1121.80
561.14	1118.14
561.49	1116.04
561.85	1116.55
562.20	1114.52
562.55	1111.75
562.90	1109.86
563.26	1108.76
563.61	1105.13
563.96	1105.83
564.32	1104.73
564.67	1105.90
565.02	1106.96
565.37	1110.12
565.73	1113.30
566.08	1112.27
566.43	1109.34
566.78	1109.79
567.14	1104.08
567.49	1101.25
567.84	1102.72
568.19	1105.20
568.54	1104.36
568.90	1110.05
569.25	1109.02
569.60	1107.52
569.95	1106.61
570.31	1105.04
570.66	1102.63
571.01	1099.40
571.36	1096.80
571.71	1095.79
572.06	1093.94
572.42	1094.74
572.77	1094.15
573.12	1096.78
573.47	1095.00
573.82	1091.84
574.18	1089.22
574.53	1090.78
574.88	1090.01
575.23	1092.23
575.58	1097.01
575.93	1094.95
576.28	1092.84
576.64	1092.49
576.99	1089.68
577.34	1086.29
577.69	1087.23
578.04	1088.98
578.39	1087.09
578.74	1085.12
579.09	1086.97
579.44	1088.21
579.80	1087.74
580.15	1085.68
580.50	1087.72
580.85	1092.09
581.20	1095.96
581.55	1098.79
581.90	1100.92
582.25	1101.48
582.60	1093.47
582.95	1089.85
583.30	1085.82
583.65	1086.24
584.00	1088.30
584.35	1090.90
584.71	1088.42
585.06	1090.41
585.41	1091.27
585.76	1089.47
586.11	1092.16
586.46	1093.52
586.81	1092.16
587.16	1090.95
587.51	1092.37
587.86	1088.58
588.21	1086.94
588.56	1087.58
588.91	1086.38
589.26	1085.03
589.61	1086.64
589.96	1088.72
590.31	1088.89
590.66	1089.89
591.01	1088.86
591.36	1087.76
591.71	1084.16
592.06	1083.83
592.41	1084.21
592.76	1084.39
593.10	1085.42
593.45	1089.33
593.80	1088.93
594.15	1087.25
594.50	1086.97
594.85	1087.30
595.20	1085.80
595.55	1085.35
595.90	1086.27
596.25	1085.89
596.60	1084.96
596.95	1084.32
597.30	1088.54
597.64	1099.82
597.99	1097.99
598.34	1096.24
598.69	1094.88
599.04	1090.50
599.39	1075.73
599.74	1078.61
600.09	1082.43
600.44	1081.33
600.78	1081.84
601.13	1086.10
601.48	1084.07
601.83	1082.03
602.18	1086.27
602.53	1085.68
602.88	1084.07
603.22	1084.30
603.57	1087.06
603.92	1086.76
604.27	1086.41
604.62	1087.55
604.97	1090.95
605.31	1087.11
605.66	1084.77
606.01	1083.08
606.36	1080.25
606.71	1079.48
607.05	1080.46
607.40	1081.91
607.75	1084.18
608.10	1083.29
608.44	1083.62
608.79	1083.25
609.14	1084.42
609.49	1084.42
609.84	1088.21
610.18	1085.84
610.53	1088.23
610.88	1088.37
611.23	1087.95
611.57	1090.99
611.92	1092.05
612.27	1094.74
612.62	1093.92
612.96	1093.87
613.31	1090.27
613.66	1089.24
614.00	1087.41
614.35	1087.18
614.70	1089.50
615.05	1091.32
615.39	1093.36
615.74	1090.13
616.09	1087.46
616.43	1083.81
616.78	1082.59
617.13	1079.20
617.47	1078.64
617.82	1084.46
618.17	1085.68
618.51	1083.71
618.86	1081.54
619.21	1082.61
619.55	1079.46
619.90	1079.81
620.25	1079.90
620.59	1082.64
620.94	1084.93
621.29	1083.55
621.63	1081.49
621.98	1080.23
622.32	1078.36
622.67	1076.65
623.02	1073.58
623.36	1078.92
623.71	1081.30
624.05	1084.93
624.40	1081.80
624.75	1086.73
625.09	1084.56
625.44	1085.56
625.78	1081.21
626.13	1083.71
626.48	1081.87
626.82	1081.61
627.17	1078.24
627.51	1081.91
627.86	1081.19
628.20	1082.36
628.55	1079.97
628.89	1084.16
629.24	1083.06
629.58	1085.77
629.93	1086.27
630.28	1089.89
630.62	1089.50
630.97	1088.98
631.31	1088.82
631.66	1085.21
632.00	1081.73
632.35	1081.28
632.69	1081.82
633.04	1082.85
633.38	1080.34
633.73	1083.18
634.07	1081.30
634.42	1081.40
634.76	1080.32
635.11	1085.07
635.45	1084.02
635.79	1084.63
636.14	1085.99
636.48	1080.65
636.83	1081.42
637.17	1079.74
637.52	1079.62
637.86	1078.52
638.21	1079.38
638.55	1077.63
638.89	1078.94
639.24	1077.30
639.58	1075.85
639.93	1080.11
640.27	1083.25
640.61	1082.45
640.96	1084.77
641.30	1087.97
641.65	1086.80
641.99	1082.57
642.33	1083.29
642.68	1082.31
643.02	1080.63
643.37	1079.27
643.71	1080.09
644.05	1077.44
644.40	1077.86
644.74	1076.86
645.08	1076.74
645.43	1078.89
645.77	1083.36
646.11	1081.61
646.46	1082.83
646.80	1083.97
647.14	1083.11
647.49	1083.76
647.83	1086.17
648.17	1086.99
648.52	1086.50
648.86	1085.14
649.20	1081.21
649.55	1080.39
649.89	1080.67
650.23	1082.94
650.57	1085.73
650.92	1088.02
651.26	1087.58
651.60	1087.86
651.95	1084.21
652.29	1079.83
652.63	1078.03
652.97	1079.88
653.32	1076.88
653.66	1078.38
654.00	1082.22
654.34	1081.47
654.69	1080.67
655.03	1080.48
655.37	1083.76
655.71	1085.80
656.05	1089.59
656.40	1089.78
656.74	1095.56
657.08	1093.57
657.42	1091.39
657.76	1090.39
658.11	1092.98
658.45	1090.27
658.79	1086.64
659.13	1084.67
659.47	1082.17
659.82	1080.51
660.16	1079.85
660.50	1084.11
660.84	1083.95
661.18	1084.72
661.52	1083.69
661.87	1084.60
662.21	1082.76
662.55	1083.60
662.89	1082.92
663.23	1082.69
663.57	1080.86
663.91	1077.25
664.25	1076.32
664.60	1076.32
664.94	1076.34
665.28	1075.92
665.62	1077.35
665.96	1081.63
666.30	1081.26
666.64	1079.71
666.98	1078.66
667.32	1077.79
667.66	1073.49
668.01	1072.06
668.35	1072.83
668.69	1075.20
669.03	1077.37
669.37	1081.33
669.71	1081.49
670.05	1081.35
670.39	1080.27
670.73	1079.62
671.07	1073.63
671.41	1077.16
671.75	1076.95
672.09	1078.54
672.43	1080.60
672.77	1085.21
673.11	1084.49
673.45	1084.23
673.79	1082.54
674.13	1080.48
674.47	1080.20
674.81	1081.89
675.15	1081.66
675.49	1081.94
675.83	1083.83
676.17	1083.53
676.51	1079.08
676.85	1081.51
677.19	1084.18
677.53	1082.47
677.87	1079.24
678.21	1080.91
678.55	1078.05
678.89	1074.21
679.23	1074.70
679.57	1078.52
679.90	1079.55
680.24	1081.77
680.58	1081.73
680.92	1082.36
681.26	1081.68
681.60	1082.92
681.94	1082.69
682.28	1083.34
682.62	1081.91
682.96	1080.48
683.29	1079.83
683.63	1080.20
683.97	1081.47
684.31	1080.53
684.65	1080.06
684.99	1079.50
685.33	1078.40
685.67	1077.40
686.00	1080.41
686.34	1081.73
686.68	1081.37
687.02	1082.66
687.36	1084.51
687.70	1085.00
688.03	1083.18
688.37	1085.75
688.71	1085.19
689.05	1082.08
689.39	1079.85
689.72	1083.50
690.06	1079.71
690.40	1078.43
690.74	1078.78
691.08	1078.92
691.41	1076.81
691.75	1079.24
692.09	1079.22
692.43	1079.88
692.76	1079.88
693.10	1078.80
693.44	1075.45
693.78	1078.68
694.11	1079.06
694.45	1080.70
694.79	1080.51
695.13	1079.55
695.46	1078.45
695.80	1079.06
696.14	1081.16
696.48	1085.40
696.81	1087.81
697.15	1087.39
697.49	1082.05
697.82	1080.77
698.16	1076.65
698.50	1078.36
698.83	1076.97
699.17	1082.45
699.51	1080.37
699.84	1083.34
700.18	1082.92
700.52	1083.43
700.85	1084.58
701.19	1083.32
701.53	1081.28
701.86	1080.91
702.20	1077.54
702.54	1075.69
702.87	1076.34
703.21	1078.71
703.55	1078.50
703.88	1083.13
704.22	1082.87
704.55	1081.84
704.89	1081.14
705.23	1078.80
705.56	1078.33
705.90	1077.44
706.23	1076.65
706.57	1076.13
706.91	1078.05
707.24	1078.31
707.58	1082.08
707.91	1084.07
708.25	1085.49
708.58	1087.18
708.92	1085.73
709.26	1081.77
709.59	1083.53
709.93	1081.61
710.26	1079.10
710.60	1081.33
710.93	1082.73
711.27	1082.69
711.60	1080.02
711.94	1078.78
712.27	1076.44
712.61	1076.06
712.94	1074.28
713.28	1075.71
713.61	1078.71
713.95	1081.91
714.28	1084.51
714.62	1085.26
714.95	1087.39
715.29	1084.32
715.62	1082.19
715.96	1076.86
716.29	1076.06
716.63	1076.95
716.96	1081.56
717.29	1082.38
717.63	1086.69
717.96	1088.00
718.30	1086.99
718.63	1085.00
718.97	1082.83
719.30	1080.95
719.63	1081.87
719.97	1079.88
720.30	1078.21
720.64	1079.41
720.97	1079.78
721.30	1078.52
721.64	1080.25
721.97	1080.91
722.31	1080.02
722.64	1079.97
722.97	1079.92
723.31	1077.82
723.64	1077.14
723.97	1077.47
724.31	1077.30
724.64	1075.03
724.98	1074.66
725.31	1076.62
725.64	1076.83
725.98	1078.92
726.31	1082.47
726.64	1087.51
726.97	1085.84
727.31	1085.49
727.64	1085.33
727.97	1082.38
728.31	1082.36
728.64	1082.83
728.97	1084.11
729.31	1084.44
729.64	1087.34
729.97	1086.27
730.30	1087.37
730.64	1085.54
730.97	1086.06
731.30	1086.29
731.63	1085.35
731.97	1086.66
732.30	1086.48
732.63	1082.92
732.96	1081.66
733.30	1079.67
733.63	1079.83
733.96	1081.07
734.29	1081.09
734.63	1080.70
734.96	1081.09
735.29	1078.45
735.62	1080.20
735.95	1082.71
736.29	1080.48
736.62	1082.85
736.95	1082.69
737.28	1082.54
737.61	1081.07
737.94	1081.02
738.28	1079.31
738.61	1081.84
738.94	1079.20
739.27	1076.20
739.60	1076.86
739.93	1077.65
740.27	1075.62
740.60	1075.43
740.93	1078.10
741.26	1078.78
741.59	1079.41
741.92	1079.78
742.25	1081.84
742.58	1082.54
742.91	1082.66
743.25	1080.56
743.58	1083.36
743.91	1081.56
744.24	1081.51
744.57	1084.28
744.90	1083.55
745.23	1081.23
745.56	1081.07
745.89	1079.15
746.22	1078.07
746.55	1075.03
746.88	1075.66
747.21	1079.64
747.54	1080.74
747.87	1081.70
748.20	1086.64
748.53	1085.56
748.87	1084.58
749.20	1082.19
749.53	1076.39
749.86	1076.55
750.19	1077.68
750.52	1074.05
750.85	1076.06
751.18	1080.04
751.51	1079.55
751.84	1076.97
752.16	1078.26
752.49	1078.24
752.82	1079.10
753.15	1078.82
753.48	1082.54
753.81	1079.78
754.14	1078.96
754.47	1079.22
754.80	1081.02
755.13	1080.20
755.46	1081.87
755.79	1083.43
756.12	1083.15
756.45	1079.71
756.78	1078.85
757.11	1079.76
757.43	1081.09
757.76	1077.75
758.09	1079.90
758.42	1082.50
758.75	1081.94
759.08	1082.78
759.41	1087.06
759.74	1085.28
760.07	1081.37
760.39	1082.57
760.72	1079.92
761.05	1078.26
761.38	1076.72
761.71	1075.05
762.04	1073.30
762.36	1077.18
762.69	1078.07
763.02	1077.30
763.35	1078.03
763.68	1078.96
764.01	1078.50
764.33	1076.83
764.66	1079.99
764.99	1083.60
765.32	1084.02
765.65	1083.41
765.97	1080.93
766.30	1080.98
766.63	1079.71
766.96	1081.40
767.28	1082.59
767.61	1088.26
767.94	1086.41
768.27	1083.60
768.59	1080.65
768.92	1075.62
769.25	1074.98
769.58	1076.20
769.90	1077.00
770.23	1080.11
770.56	1082.01
770.89	1079.64
771.21	1079.08
771.54	1079.10
771.87	1076.58
772.19	1077.25
772.52	1079.92
772.85	1080.67
773.17	1081.58
773.50	1081.82
773.83	1080.41
774.15	1078.94
774.48	1078.10
774.81	1080.44
775.13	1079.22
775.46	1076.86
775.79	1075.15
776.11	1079.17
776.44	1076.65
776.77	1077.89
777.09	1081.51
777.42	1083.29
777.74	1080.88
778.07	1081.19
778.40	1083.06
778.72	1081.70
779.05	1079.13
779.37	1075.62
779.70	1075.71
780.03	1074.61
780.35	1075.69
780.68	1076.25
781.00	1079.17
781.33	1079.03
781.65	1078.24
781.98	1076.44
782.31	1078.99
782.63	1077.79
782.96	1076.13
783.28	1078.87
783.61	1081.16
783.93	1080.81
784.26	1082.52
784.58	1083.67
784.91	1081.58
785.23	1079.46
785.56	1078.71
785.88	1080.39
786.21	1082.45
786.53	1083.62
786.86	1086.90
787.18	1085.96
787.51	1085.40
787.83	1084.14
788.16	1081.33
788.48	1079.43
788.81	1080.88
789.13	1080.32
789.46	1077.14
789.78	1077.25
790.10	1074.91
790.43	1074.40
790.75	1077.25
791.08	1081.54
791.40	1083.95
791.73	1085.17
792.05	1085.40
792.37	1081.19
792.70	1081.12
793.02	1079.53
793.35	1081.12
793.67	1080.16
793.99	1080.48
794.32	1078.78
794.64	1079.20
794.96	1079.36
795.29	1080.23
795.61	1081.40
795.93	1080.88
796.26	1082.36
796.58	1082.66
796.91	1083.48
797.23	1079.64
797.55	1081.33
797.87	1077.54
798.20	1075.78
798.52	1075.55
798.84	1074.42
799.17	1073.84
799.49	1075.71
799.81	1078.54
800.14	1076.67
800.46	1081.37
800.78	1084.44
801.10	1086.31
801.43	1080.41
801.75	1081.33
802.07	1081.35
802.40	1077.14
802.72	1075.83
803.04	1078.54
803.36	1076.67
803.69	1074.24
804.01	1075.80
804.33	1074.96
804.65	1073.56
804.97	1076.23
805.30	1076.32
805.62	1075.66
805.94	1074.68
806.26	1077.07
806.58	1075.92
806.91	1080.32
807.23	1078.64
807.55	1081.44
807.87	1079.97
808.19	1079.64
808.52	1079.31
808.84	1080.25
809.16	1080.16
809.48	1079.17
809.80	1077.18
810.12	1073.56
810.44	1072.76
810.77	1072.88
811.09	1077.00
811.41	1079.83
811.73	1081.21
812.05	1083.29
812.37	1081.82
812.69	1079.38
813.01	1081.94
813.33	1084.56
813.66	1083.25
813.98	1084.51
814.30	1089.07
814.62	1085.14
814.94	1081.58
815.26	1082.24
815.58	1082.38
815.90	1077.77
816.22	1077.98
816.54	1078.89
816.86	1078.03
817.18	1077.00
817.50	1077.91
817.82	1076.08
818.14	1077.14
818.46	1076.48
818.78	1079.17
819.10	1078.96
819.42	1080.86
819.74	1079.10
820.06	1085.38
820.38	1082.17
820.70	1077.86
821.02	1076.55
821.34	1077.25
821.66	1072.48
821.98	1075.52
822.30	1080.86
822.62	1081.30
822.94	1080.86
823.26	1081.47
823.58	1079.57
823.90	1077.11
824.22	1077.54
824.54	1075.52
824.86	1075.48
825.18	1074.14
825.50	1075.78
825.81	1077.56
826.13	1078.24
826.45	1077.68
826.77	1077.14
827.09	1075.69
827.41	1075.17
827.73	1077.00
828.05	1077.44
828.36	1081.12
828.68	1084.91
829.00	1086.15
829.32	1085.99
829.64	1085.84
829.96	1078.47
830.28	1074.75
830.59	1072.20
830.91	1071.38
831.23	1071.38
831.55	1075.55
831.87	1075.76
832.19	1076.95
832.50	1076.08
832.82	1075.10
833.14	1076.86
833.46	1077.89
833.78	1077.91
834.09	1079.01
834.41	1080.09
834.73	1081.05
835.05	1077.70
835.36	1077.21
835.68	1079.20
836.00	1079.71
836.32	1078.47
836.63	1085.68
836.95	1087.79
837.27	1085.80
837.59	1084.14
837.90	1082.59
838.22	1080.51
838.54	1079.67
838.85	1082.87
839.17	1083.20
839.49	1085.03
839.80	1084.93
840.12	1085.07
840.44	1082.47
840.76	1083.90
841.07	1084.91
841.39	1082.17
841.71	1083.29
842.02	1082.12
842.34	1081.68
842.65	1079.15
842.97	1078.85
843.29	1079.22
843.60	1080.44
843.92	1077.33
844.24	1076.46
844.55	1079.29
844.87	1076.51
845.18	1072.97
845.50	1074.45
845.82	1077.47
846.13	1077.54
846.45	1077.14
846.76	1081.56
847.08	1082.26
847.40	1082.15
847.71	1080.41
848.03	1080.65
848.34	1080.81
848.66	1081.26
848.97	1077.16
849.29	1075.34
849.60	1075.99
849.92	1070.87
850.24	1068.10
850.55	1067.87
850.87	1069.06
851.18	1064.43
851.50	1068.36
851.81	1071.90
852.13	1074.68
852.44	1075.38
852.76	1080.25
853.07	1080.79
853.39	1079.43
853.70	1076.62
854.01	1077.56
854.33	1075.05
854.64	1072.92
854.96	1072.34
855.27	1076.58
855.59	1079.76
855.90	1081.19
856.22	1079.55
856.53	1081.56
856.84	1081.68
857.16	1077.35
857.47	1078.64
857.79	1081.40
858.10	1083.08
858.41	1080.46
858.73	1081.54
859.04	1078.78
859.36	1079.10
859.67	1078.21
859.98	1077.65
860.30	1074.31
860.61	1075.08
860.92	1076.15
861.24	1073.72
861.55	1075.01
861.87	1078.78
862.18	1079.90
862.49	1078.54
862.81	1077.68
863.12	1076.76
863.43	1076.18
863.74	1076.69
864.06	1079.71
864.37	1079.99
864.68	1084.51
865.00	1082.43
865.31	1081.37
865.62	1080.56
865.94	1082.01
866.25	1078.24
866.56	1079.88
866.87	1078.36
867.19	1074.70
867.50	1071.87
867.81	1072.97
868.12	1073.21
868.44	1075.55
868.75	1076.83
869.06	1079.55
869.37	1078.71
869.68	1080.20
870.00	1077.18
870.31	1077.72
870.62	1077.18
870.93	1078.14
871.24	1077.18
871.56	1082.59
871.87	1083.97
872.18	1082.85
872.49	1080.25
872.80	1078.33
873.12	1071.75
873.43	1069.34
873.74	1070.37
874.05	1069.91
874.36	1070.84
874.67	1076.60
874.98	1079.17
875.29	1080.88
875.61	1082.40
875.92	1082.43
876.23	1082.08
876.54	1080.20
876.85	1079.99
877.16	1080.44
877.47	1079.67
877.78	1077.82
878.09	1075.15
878.40	1075.10
878.72	1075.50
879.03	1075.20
879.34	1074.59
879.65	1075.48
879.96	1075.50
880.27	1075.36
880.58	1075.22
880.89	1076.81
881.20	1077.49
881.51	1077.21
881.82	1076.83
882.13	1074.07
882.44	1072.97
882.75	1071.78
883.06	1072.76
883.37	1071.90
883.68	1073.98
883.99	1074.45
884.30	1077.00
884.61	1072.32
884.92	1071.29
885.23	1072.46
885.54	1074.05
885.85	1073.93
886.16	1076.81
886.47	1081.00
886.78	1083.13
887.08	1084.11
887.39	1084.25
887.70	1082.87
888.01	1080.16
888.32	1076.60
888.63	1075.05
888.94	1073.65
889.25	1074.14
889.56	1076.53
889.87	1079.76
890.17	1079.06
890.48	1077.35
890.79	1077.11
891.10	1073.74
891.41	1072.95
891.72	1072.55
892.03	1074.75
892.34	1077.65
892.64	1077.14
892.95	1075.50
893.26	1073.09
893.57	1073.72
893.88	1071.24
894.18	1073.81
894.49	1074.35
894.80	1077.14
895.11	1076.93
895.42	1079.20
895.72	1077.44
896.03	1076.83
896.34	1075.41
896.65	1076.95
896.96	1074.73
897.26	1078.87
897.57	1080.65
897.88	1085.91
898.19	1083.88
898.49	1083.29
898.80	1083.18
899.11	1082.90
899.41	1079.01
899.72	1078.17
900.03	1080.91
900.34	1078.43
900.64	1078.68
900.95	1076.67
901.26	1079.24
901.56	1077.56
901.87	1078.71
902.18	1080.53
902.48	1083.11
902.79	1085.17
903.10	1086.71
903.40	1084.81
903.71	1082.80
904.02	1082.54
904.32	1078.19
904.63	1075.73
904.94	1074.77
905.24	1076.72
905.55	1075.94
905.85	1074.00
906.16	1077.56
906.47	1082.19
906.77	1077.84
907.08	1080.11
907.38	1083.62
907.69	1079.99
908.00	1077.21
908.30	1080.27
908.61	1080.11
908.91	1075.57
909.22	1076.88
909.52	1077.11
909.83	1074.68
910.14	1072.13
910.44	1076.88
910.75	1075.99
911.05	1077.00
911.36	1076.76
911.66	1077.63
911.97	1075.62
912.27	1076.65
912.58	1073.14
912.88	1073.39
913.19	1073.37
913.49	1073.95
913.80	1073.53
914.10	1074.24
914.41	1075.05
914.71	1073.42
915.01	1073.14
915.32	1075.34
915.62	1078.61
915.93	1078.52
916.23	1082.87
916.54	1083.97
916.84	1082.33
917.15	1081.21
917.45	1084.56
917.75	1080.93
918.06	1082.40
918.36	1082.76
918.67	1080.11
918.97	1074.98
919.27	1076.30
919.58	1075.55
919.88	1075.71
920.18	1079.38
920.49	1084.04
920.79	1083.74
921.10	1080.58
921.40	1078.10
921.70	1072.88
922.01	1069.30
922.31	1067.49
922.61	1071.43
922.92	1074.84
923.22	1073.79
923.52	1074.84
923.82	1075.22
924.13	1074.45
924.43	1072.81
924.73	1076.32
925.04	1078.40
925.34	1078.94
925.64	1079.31
925.94	1078.78
926.25	1078.94
926.55	1075.87
926.85	1072.97
927.15	1073.42
927.46	1073.49
927.76	1072.60
928.06	1071.29
928.36	1073.02
928.67	1070.23
928.97	1071.68
929.27	1074.00
929.57	1077.40
929.87	1078.71
930.18	1081.44
930.48	1080.65
930.78	1080.44
931.08	1081.07
931.38	1082.59
931.69	1081.96
931.99	1083.01
932.29	1083.08
932.59	1079.74
932.89	1076.81
933.19	1075.17
933.49	1071.82
933.80	1073.93
934.10	1077.40
934.40	1077.49
934.70	1075.66
935.00	1079.95
935.30	1075.24
935.60	1073.39
935.90	1075.08
936.20	1075.15
936.50	1073.72
936.81	1079.31
937.11	1079.48
937.41	1080.93
937.71	1086.78
938.01	1086.13
938.31	1083.18
938.61	1082.71
938.91	1080.81
939.21	1076.48
939.51	1072.81
939.81	1070.19
940.11	1071.08
940.41	1072.36
940.71	1073.09
941.01	1074.61
941.31	1075.73
941.61	1076.53
941.91	1077.07
942.21	1080.02
942.51	1082.50
942.81	1084.93
943.11	1084.02
943.41	1085.59
943.71	1082.03
944.01	1082.22
944.31	1082.19
944.61	1082.97
944.90	1082.78
945.20	1084.14
945.50	1087.27
945.80	1084.02
946.10	1084.21
946.40	1079.22
946.70	1080.48
947.00	1077.51
947.30	1075.52
947.60	1072.92
947.89	1074.49
948.19	1074.91
948.49	1075.17
948.79	1080.41
949.09	1082.40
949.39	1085.07
949.69	1084.25
949.98	1083.32
950.28	1083.48
950.58	1082.54
950.88	1081.58
951.18	1079.38
951.48	1081.28
951.77	1078.38
952.07	1077.40
952.37	1078.19
952.67	1077.40
952.97	1075.38
953.26	1075.80
953.56	1079.71
953.86	1075.69
954.16	1079.67
954.45	1081.23
954.75	1081.68
955.05	1075.66
955.35	1075.15
955.64	1072.57
955.94	1073.37
956.24	1076.23
956.54	1079.69
956.83	1082.52
957.13	1084.60
957.43	1083.55
957.72	1083.32
958.02	1085.10
958.32	1086.20
958.61	1084.89
958.91	1082.31
959.21	1078.71
959.50	1077.82
959.80	1074.42
960.10	1076.23
960.39	1078.99
960.69	1077.30
960.99	1073.14
961.28	1074.42
961.58	1074.19
961.87	1072.27
962.17	1075.29
962.47	1078.33
962.76	1080.46
963.06	1077.56
963.36	1078.87
963.65	1077.68
963.95	1077.07
964.24	1077.49
964.54	1078.14
964.83	1075.99
965.13	1076.76
965.42	1074.61
965.72	1073.35
966.02	1074.35
966.31	1074.98
966.61	1075.85
966.90	1077.79
967.20	1076.11
967.49	1076.81
967.79	1076.93
968.08	1078.07
968.38	1077.16
968.67	1077.96
968.97	1077.00
969.26	1076.97
969.56	1074.35
969.85	1078.19
970.15	1079.22
970.44	1079.38
970.74	1079.78
971.03	1080.72
971.32	1075.83
971.62	1076.65
971.91	1074.54
972.21	1075.10
972.50	1072.76
972.80	1077.93
973.09	1075.38
973.38	1076.46
973.68	1076.08
973.97	1078.00
974.27	1077.54
974.56	1078.66
974.85	1078.94
975.15	1076.41
975.44	1076.23
975.73	1075.52
976.03	1072.50
976.32	1071.40
976.61	1075.01
976.91	1077.40
977.20	1079.27
977.49	1081.61
977.79	1081.40
978.08	1079.85
978.37	1078.24
978.67	1073.37
978.96	1074.31
979.25	1074.03
979.55	1074.52
979.84	1075.50
980.13	1076.13
980.42	1077.79
980.72	1077.44
981.01	1077.70
981.30	1078.78
981.59	1079.15
981.89	1075.36
982.18	1075.55
982.47	1076.46
982.76	1072.08
983.06	1074.19
983.35	1077.11
983.64	1078.43
983.93	1078.28
984.22	1082.94
984.52	1079.67
984.81	1077.93
985.10	1077.82
985.39	1077.72
985.68	1076.39
985.97	1078.80
986.27	1081.73
986.56	1080.60
986.85	1076.62
987.14	1072.20
987.43	1070.14
987.72	1066.09
988.01	1066.72
988.31	1070.77
988.60	1075.29
988.89	1074.87
989.18	1076.95
989.47	1077.58
989.76	1075.92
990.05	1075.24
990.34	1076.58
990.63	1077.33
990.92	1079.81
991.21	1079.60
991.51	1078.61
991.80	1081.47
992.09	1078.28
992.38	1076.65
992.67	1075.97
992.96	1076.11
993.25	1074.54
993.54	1074.63
993.83	1073.09
994.12	1073.35
994.41	1070.47
994.70	1067.73
994.99	1069.20
995.28	1071.45
995.57	1073.23
995.86	1076.39
996.15	1079.76
996.44	1080.81
996.73	1081.33
997.02	1082.97
997.31	1081.70
997.59	1082.78
997.88	1083.83
998.17	1081.96
998.46	1081.16
998.75	1082.17
999.04	1081.23
999.33	1076.60
999.62	1079.38
999.91	1078.03
1000.20	1079.06
1000.49	1076.67
1000.77	1077.65
1001.06	1075.13
1001.35	1075.59
1001.64	1075.50
1001.93	1078.85
1002.22	1079.60
1002.51	1080.53
1002.79	1083.06
1003.08	1084.25
1003.37	1084.21
1003.66	1085.05
1003.95	1080.23
1004.23	1077.16
1004.52	1075.69
1004.81	1073.49
1005.10	1077.35
1005.39	1081.51
1005.67	1080.72
1005.96	1079.06
1006.25	1079.74
1006.54	1073.77
1006.83	1073.46
1007.11	1074.56
1007.40	1073.58
1007.69	1070.63
1007.97	1074.12
1008.26	1076.74
1008.55	1077.42
1008.84	1079.76
1009.12	1079.88
1009.41	1080.16
1009.70	1077.82
1009.98	1078.61
1010.27	1078.85
1010.56	1080.27
1010.85	1082.19
1011.13	1081.96
1011.42	1080.70
1011.71	1080.46
1011.99	1080.04
1012.28	1077.96
1012.56	1079.74
1012.85	1079.90
1013.14	1079.22
1013.42	1080.06
1013.71	1080.09
1014.00	1079.76
1014.28	1080.16
1014.57	1081.19
1014.85	1080.16
1015.14	1082.69
1015.43	1080.93
1015.71	1078.33
1016.00	1076.11
1016.28	1078.03
1016.57	1076.46
1016.85	1076.65
1017.14	1077.75
1017.43	1078.71
1017.71	1079.13
1018.00	1076.72
1018.28	1075.20
1018.57	1075.34
1018.85	1078.57
1019.14	1075.52
1019.42	1075.94
1019.71	1078.26
1019.99	1076.79
1020.28	1075.71
1020.56	1079.38
1020.85	1082.29
1021.13	1079.53
1021.42	1081.09
1021.70	1077.04
1021.99	1074.89
1022.27	1074.33
1022.55	1074.77
1022.84	1088.35
>>>>>End Processed Spectral Data<<<<<
