SpectraSuite Data File
++++++++++++++++++++++++++++++++++++
Date: Mon Aug 26 10:22:14 PDT 2019
User: corrico
Dark Spectrum Present: No
Reference Spectrum Present: No
Number of Sampled Component Spectra: 1
Spectrometers: USB2+H06089
Integration Time (usec): 2000 (USB2+H06089)
Spectra Averaged: 20 (USB2+H06089)
Boxcar Smoothing: 2 (USB2+H06089)
Correct for Electrical Dark: No (USB2+H06089)
Strobe/Lamp Enabled: No (USB2+H06089)
Correct for Detector Non-linearity: No (USB2+H06089)
Correct for Stray Light: No (USB2+H06089)
Number of Pixels in Processed Spectrum: 2048
>>>>>Begin Processed Spectral Data<<<<<
339.70	1024.22
340.07	1024.22
340.45	993.37
340.82	974.58
341.19	950.61
341.57	924.37
341.94	914.28
342.31	902.79
342.69	896.75
343.06	896.17
343.43	898.60
343.81	900.36
344.18	902.30
344.55	907.10
344.93	911.33
345.30	917.00
345.67	923.20
346.04	932.42
346.42	939.09
346.79	946.54
347.16	956.53
347.54	966.06
347.91	976.96
348.28	985.67
348.65	999.43
349.03	1006.78
349.40	1014.04
349.77	1021.20
350.14	1030.00
350.52	1033.79
350.89	1038.59
351.26	1044.32
351.63	1046.83
352.01	1049.36
352.38	1054.93
352.75	1063.09
353.12	1066.54
353.50	1072.29
353.87	1077.30
354.24	1078.14
354.61	1078.54
354.98	1081.26
355.36	1084.07
355.73	1088.49
356.10	1089.57
356.47	1090.01
356.84	1089.94
357.22	1088.65
357.59	1082.15
357.96	1081.33
358.33	1080.56
358.70	1082.73
359.08	1081.56
359.45	1084.63
359.82	1088.96
360.19	1087.97
360.56	1087.13
360.94	1088.28
361.31	1085.84
361.68	1081.84
362.05	1081.51
362.42	1081.84
362.79	1081.35
363.16	1082.80
363.54	1081.66
363.91	1082.45
364.28	1082.64
364.65	1080.60
365.02	1079.81
365.39	1078.28
365.76	1076.44
366.14	1073.09
366.51	1071.97
366.88	1070.40
367.25	1071.03
367.62	1071.50
367.99	1070.49
368.36	1074.82
368.73	1076.60
369.10	1079.90
369.48	1081.19
369.85	1081.75
370.22	1080.41
370.59	1077.35
370.96	1076.08
371.33	1076.44
371.70	1077.79
372.07	1075.73
372.44	1078.43
372.81	1078.54
373.18	1076.18
373.55	1077.63
373.93	1077.28
374.30	1077.40
374.67	1079.34
375.04	1082.83
375.41	1082.85
375.78	1083.97
376.15	1080.23
376.52	1078.43
376.89	1075.41
377.26	1073.25
377.63	1075.20
378.00	1078.57
378.37	1081.05
378.74	1081.73
379.11	1084.70
379.48	1081.82
379.85	1081.51
380.22	1079.85
380.59	1078.96
380.96	1079.38
381.33	1083.29
381.70	1085.89
382.07	1084.53
382.44	1086.78
382.81	1085.24
383.18	1084.53
383.55	1082.80
383.92	1085.17
384.29	1084.00
384.66	1084.72
385.03	1083.74
385.40	1086.50
385.77	1082.45
386.14	1085.14
386.51	1085.89
386.88	1088.19
387.25	1087.55
387.62	1089.96
387.99	1086.03
388.36	1085.03
388.73	1085.56
389.10	1090.55
389.46	1090.67
389.83	1096.07
390.20	1096.03
390.57	1095.00
390.94	1088.70
391.31	1090.92
391.68	1088.19
392.05	1088.61
392.42	1087.30
392.79	1092.45
393.16	1089.94
393.53	1089.29
393.89	1090.85
394.26	1094.22
394.63	1090.46
395.00	1091.32
395.37	1091.39
395.74	1089.17
396.11	1087.34
396.48	1086.94
396.84	1089.47
397.21	1091.88
397.58	1091.72
397.95	1091.79
398.32	1092.96
398.69	1090.17
399.06	1091.79
399.42	1092.82
399.79	1090.71
400.16	1090.92
400.53	1092.16
400.90	1090.39
401.27	1093.24
401.64	1094.27
402.00	1091.74
402.37	1092.80
402.74	1090.08
403.11	1087.27
403.48	1088.93
403.84	1090.57
404.21	1088.23
404.58	1088.33
404.95	1089.40
405.32	1088.33
405.68	1087.62
406.05	1088.79
406.42	1092.91
406.79	1092.84
407.16	1096.35
407.52	1099.00
407.89	1098.02
408.26	1096.70
408.63	1098.23
408.99	1094.86
409.36	1095.02
409.73	1100.12
410.10	1102.49
410.47	1103.02
410.83	1106.54
411.20	1108.06
411.57	1103.73
411.94	1106.42
412.30	1105.48
412.67	1103.54
413.04	1102.91
413.40	1105.25
413.77	1104.50
414.14	1104.78
414.51	1105.65
414.87	1105.76
415.24	1104.17
415.61	1102.49
415.97	1103.26
416.34	1105.83
416.71	1107.54
417.08	1112.29
417.44	1112.88
417.81	1115.48
418.18	1115.12
418.54	1113.74
418.91	1111.43
419.28	1112.36
419.64	1112.62
420.01	1112.27
420.38	1112.81
420.74	1116.48
421.11	1117.91
421.48	1120.67
421.84	1125.66
422.21	1130.69
422.58	1130.24
422.94	1135.32
423.31	1135.35
423.68	1137.50
424.04	1142.35
424.41	1149.81
424.77	1150.42
425.14	1155.43
425.51	1159.50
425.87	1163.04
426.24	1167.08
426.61	1174.81
426.97	1181.55
427.34	1189.83
427.70	1196.51
428.07	1203.13
428.44	1207.22
428.80	1219.21
429.17	1227.61
429.53	1238.78
429.90	1253.85
430.27	1268.43
430.63	1277.16
431.00	1289.85
431.36	1307.89
431.73	1321.61
432.09	1340.12
432.46	1360.79
432.83	1378.22
433.19	1393.51
433.56	1412.72
433.92	1434.82
434.29	1455.49
434.65	1487.01
435.02	1515.85
435.38	1548.71
435.75	1581.71
436.11	1623.77
436.48	1661.57
436.84	1705.27
437.21	1751.24
437.57	1798.30
437.94	1846.26
438.30	1898.13
438.67	1955.75
439.03	2017.61
439.40	2090.78
439.76	2161.79
440.13	2238.58
440.49	2321.37
440.86	2397.62
441.22	2480.01
441.59	2569.02
441.95	2669.54
442.32	2763.92
442.68	2881.18
443.05	2998.98
443.41	3122.25
443.78	3248.20
444.14	3393.45
444.51	3529.43
444.87	3695.21
445.24	3863.08
445.60	4042.13
445.96	4218.93
446.33	4431.83
446.69	4625.53
447.06	4837.65
447.42	5055.70
447.79	5286.69
448.15	5545.08
448.51	5813.17
448.88	6124.06
449.24	6430.18
449.61	6779.46
449.97	7134.44
450.33	7511.74
450.70	7873.21
451.06	8292.56
451.43	8683.95
451.79	9135.98
452.15	9620.21
452.52	10154.84
452.88	10706.03
453.24	11342.96
453.61	12029.86
453.97	12727.67
454.34	13401.79
454.70	14187.32
455.06	14968.80
455.43	15699.40
455.79	16375.32
456.15	17174.27
456.52	17917.06
456.88	18814.28
457.24	19718.57
457.61	20827.19
457.97	21890.12
458.33	22990.22
458.70	24046.50
459.06	25058.13
459.42	26053.23
459.79	26959.13
460.15	27982.30
460.51	28943.18
460.88	30018.92
461.24	30992.67
461.60	32159.17
461.96	33206.98
462.33	34212.31
462.69	35199.13
463.05	36276.48
463.42	37220.18
463.78	38110.15
464.14	38871.48
464.50	39623.94
464.87	40171.04
465.23	40554.56
465.59	40985.61
465.95	41335.71
466.32	41573.86
466.68	41818.63
467.04	41944.93
467.40	41935.14
467.77	42042.62
468.13	41966.11
468.49	41803.16
468.85	41699.50
469.22	41567.80
469.58	41277.48
469.94	41106.90
470.30	40848.97
470.66	40480.83
471.03	39952.57
471.39	39578.18
471.75	38835.97
472.11	38158.10
472.47	37660.86
472.84	37146.53
473.20	36439.00
473.56	36074.05
473.92	35508.08
474.28	34879.15
474.65	34261.32
475.01	33607.64
475.37	32822.76
475.73	32168.02
476.09	31484.49
476.45	30854.95
476.81	30330.51
477.18	29786.55
477.54	29318.21
477.90	28870.88
478.26	28311.12
478.62	27787.80
478.98	27338.51
479.34	26879.53
479.71	26332.83
480.07	25896.67
480.43	25449.93
480.79	24971.85
481.15	24515.50
481.51	24160.95
481.87	23865.06
482.23	23509.21
482.59	23195.29
482.96	22898.28
483.32	22573.93
483.68	22156.87
484.04	21816.13
484.40	21405.49
484.76	20963.05
485.12	20523.95
485.48	20103.49
485.84	19615.42
486.20	19191.04
486.56	18772.59
486.92	18391.16
487.28	18018.08
487.64	17622.92
488.00	17240.06
488.37	16865.64
488.73	16446.87
489.09	15992.53
489.45	15593.23
489.81	15165.85
490.17	14739.55
490.53	14342.50
490.89	13944.07
491.25	13534.85
491.61	13142.67
491.97	12753.74
492.33	12358.38
492.69	11999.06
493.05	11658.11
493.41	11328.97
493.77	10996.07
494.13	10683.94
494.49	10385.75
494.85	10104.70
495.21	9842.16
495.57	9592.15
495.93	9338.13
496.29	9096.80
496.64	8883.64
497.00	8636.06
497.36	8386.28
497.72	8153.16
498.08	7936.87
498.44	7692.33
498.80	7486.51
499.16	7294.98
499.52	7105.16
499.88	6922.77
500.24	6755.89
500.60	6596.99
500.96	6435.00
501.32	6275.58
501.68	6115.73
502.03	5946.76
502.39	5784.17
502.75	5624.19
503.11	5470.77
503.47	5328.02
503.83	5198.10
504.19	5060.66
504.55	4940.59
504.91	4827.96
505.26	4706.40
505.62	4594.47
505.98	4484.51
506.34	4363.11
506.70	4244.30
507.06	4137.32
507.42	4033.12
507.78	3940.53
508.13	3856.83
508.49	3780.36
508.85	3703.59
509.21	3621.00
509.57	3536.67
509.93	3454.68
510.28	3365.01
510.64	3291.14
511.00	3214.33
511.36	3143.27
511.72	3078.34
512.07	3021.56
512.43	2951.53
512.79	2890.30
513.15	2825.07
513.51	2765.34
513.86	2711.21
514.22	2661.89
514.58	2610.38
514.94	2570.42
515.30	2527.66
515.65	2479.21
516.01	2440.15
516.37	2402.47
516.73	2360.08
517.08	2315.35
517.44	2278.68
517.80	2238.04
518.16	2196.76
518.51	2161.79
518.87	2134.47
519.23	2102.83
519.59	2070.67
519.94	2042.21
520.30	2016.32
520.66	1985.69
521.01	1959.82
521.37	1937.45
521.73	1915.80
522.09	1889.21
522.44	1864.80
522.80	1840.27
523.16	1815.39
523.51	1792.43
523.87	1773.94
524.23	1754.56
524.58	1734.59
524.94	1714.23
525.30	1691.93
525.65	1673.44
526.01	1653.59
526.37	1637.11
526.72	1618.48
527.08	1602.45
527.44	1584.64
527.79	1571.27
528.15	1555.10
528.51	1542.34
528.86	1530.38
529.22	1516.97
529.58	1501.78
529.93	1488.93
530.29	1473.27
530.65	1462.41
531.00	1452.28
531.36	1441.79
531.71	1430.79
532.07	1422.41
532.43	1412.82
532.78	1400.76
533.14	1388.05
533.49	1379.35
533.85	1371.20
534.21	1361.70
534.56	1351.10
534.92	1344.85
535.27	1336.24
535.63	1328.63
535.98	1320.20
536.34	1313.98
536.69	1309.30
537.05	1301.74
537.41	1293.22
537.76	1286.80
538.12	1277.58
538.47	1270.04
538.83	1265.90
539.18	1261.90
539.54	1259.09
539.89	1259.33
540.25	1253.82
540.60	1248.21
540.96	1244.95
541.31	1240.02
541.67	1237.82
542.02	1234.38
542.38	1230.28
542.73	1226.25
543.09	1222.81
543.44	1219.28
543.80	1216.10
544.15	1214.39
544.51	1209.05
544.86	1205.77
545.22	1201.02
545.57	1199.62
545.93	1196.29
546.28	1193.86
546.64	1192.81
546.99	1188.99
547.35	1186.32
547.70	1183.52
548.05	1182.51
548.41	1175.79
548.76	1172.19
549.12	1171.44
549.47	1170.34
549.83	1168.63
550.18	1167.55
550.53	1167.95
550.89	1165.03
551.24	1160.70
551.60	1160.55
551.95	1157.79
552.30	1154.33
552.66	1153.67
553.01	1152.15
553.37	1149.34
553.72	1149.65
554.07	1146.86
554.43	1143.61
554.78	1142.44
555.13	1141.76
555.49	1141.46
555.84	1140.29
556.19	1140.82
556.55	1142.11
556.90	1140.68
557.26	1137.66
557.61	1135.82
557.96	1131.63
558.32	1127.97
558.67	1130.50
559.02	1128.21
559.37	1127.90
559.73	1126.80
560.08	1124.81
560.43	1117.42
560.79	1121.05
561.14	1120.79
561.49	1118.66
561.85	1115.45
562.20	1116.27
562.55	1109.65
562.90	1107.31
563.26	1108.24
563.61	1108.45
563.96	1105.32
564.32	1104.33
564.67	1106.61
565.02	1106.79
565.37	1108.10
565.73	1107.73
566.08	1110.28
566.43	1109.84
566.78	1110.00
567.14	1108.88
567.49	1111.24
567.84	1111.22
568.19	1109.77
568.54	1108.74
568.90	1108.06
569.25	1106.68
569.60	1106.14
569.95	1104.64
570.31	1103.52
570.66	1102.49
571.01	1103.52
571.36	1101.46
571.71	1104.94
572.06	1107.89
572.42	1108.10
572.77	1106.16
573.12	1107.82
573.47	1107.26
573.82	1104.50
574.18	1104.66
574.53	1105.11
574.88	1105.83
575.23	1101.81
575.58	1101.34
575.93	1102.30
576.28	1102.11
576.64	1100.71
576.99	1100.22
577.34	1101.69
577.69	1101.81
578.04	1098.44
578.39	1097.83
578.74	1100.08
579.09	1095.77
579.44	1092.28
579.80	1095.23
580.15	1094.29
580.50	1090.81
580.85	1093.36
581.20	1096.66
581.55	1096.14
581.90	1096.03
582.25	1097.36
582.60	1099.56
582.95	1098.46
583.30	1097.29
583.65	1095.35
584.00	1097.48
584.35	1096.17
584.71	1095.98
585.06	1098.20
585.41	1100.05
585.76	1095.91
586.11	1093.19
586.46	1093.94
586.81	1089.24
587.16	1088.58
587.51	1093.10
587.86	1091.06
588.21	1089.14
588.56	1091.02
588.91	1090.48
589.26	1084.98
589.61	1087.18
589.96	1088.00
590.31	1088.30
590.66	1091.06
591.01	1093.97
591.36	1093.19
591.71	1091.09
592.06	1090.97
592.41	1089.64
592.76	1088.12
593.10	1088.07
593.45	1089.19
593.80	1089.33
594.15	1089.38
594.50	1091.49
594.85	1089.89
595.20	1088.77
595.55	1087.02
595.90	1087.60
596.25	1086.08
596.60	1087.55
596.95	1090.76
597.30	1090.60
597.64	1100.10
597.99	1102.11
598.34	1102.23
598.69	1100.85
599.04	1103.68
599.39	1091.13
599.74	1087.67
600.09	1088.00
600.44	1085.61
600.78	1083.86
601.13	1084.00
601.48	1085.07
601.83	1086.50
602.18	1089.14
602.53	1089.26
602.88	1089.24
603.22	1088.33
603.57	1088.58
603.92	1088.82
604.27	1091.63
604.62	1095.11
604.97	1096.12
605.31	1091.16
605.66	1090.15
606.01	1087.48
606.36	1082.59
606.71	1084.02
607.05	1085.63
607.40	1084.16
607.75	1084.89
608.10	1088.56
608.44	1086.24
608.79	1086.83
609.14	1088.75
609.49	1086.29
609.84	1083.62
610.18	1087.69
610.53	1088.77
610.88	1088.86
611.23	1091.30
611.57	1092.77
611.92	1092.33
612.27	1093.62
612.62	1093.01
612.96	1090.83
613.31	1089.82
613.66	1089.61
614.00	1086.55
614.35	1088.30
614.70	1091.06
615.05	1091.56
615.39	1088.77
615.74	1092.07
616.09	1086.83
616.43	1085.35
616.78	1082.94
617.13	1082.50
617.47	1079.95
617.82	1081.07
618.17	1080.25
618.51	1081.68
618.86	1079.81
619.21	1080.23
619.55	1080.74
619.90	1082.78
620.25	1082.64
620.59	1084.44
620.94	1083.76
621.29	1085.35
621.63	1085.45
621.98	1084.84
622.32	1083.50
622.67	1081.21
623.02	1080.60
623.36	1081.05
623.71	1080.30
624.05	1083.06
624.40	1085.49
624.75	1085.42
625.09	1084.84
625.44	1087.25
625.78	1086.45
626.13	1087.16
626.48	1086.38
626.82	1086.06
627.17	1086.87
627.51	1087.32
627.86	1085.80
628.20	1089.07
628.55	1088.68
628.89	1088.40
629.24	1086.90
629.58	1089.96
629.93	1086.29
630.28	1087.72
630.62	1088.54
630.97	1091.44
631.31	1089.33
631.66	1089.73
632.00	1088.02
632.35	1084.98
632.69	1082.50
633.04	1084.23
633.38	1084.23
633.73	1082.26
634.07	1081.82
634.42	1081.30
634.76	1076.69
635.11	1077.58
635.45	1077.70
635.79	1078.28
636.14	1079.15
636.48	1081.77
636.83	1083.04
637.17	1082.15
637.52	1086.08
637.86	1087.44
638.21	1084.96
638.55	1084.72
638.89	1087.95
639.24	1083.93
639.58	1081.87
639.93	1084.39
640.27	1084.56
640.61	1083.57
640.96	1083.86
641.30	1085.12
641.65	1085.96
641.99	1082.47
642.33	1082.52
642.68	1081.87
643.02	1082.80
643.37	1083.22
643.71	1085.54
644.05	1084.74
644.40	1086.10
644.74	1087.11
645.08	1086.83
645.43	1086.57
645.77	1086.45
646.11	1085.26
646.46	1081.33
646.80	1081.26
647.14	1081.75
647.49	1080.25
647.83	1082.43
648.17	1084.39
648.52	1085.38
648.86	1086.43
649.20	1091.27
649.55	1092.56
649.89	1092.96
650.23	1093.90
650.57	1091.93
650.92	1086.97
651.26	1083.74
651.60	1084.02
651.95	1081.80
652.29	1082.85
652.63	1085.52
652.97	1081.51
653.32	1078.03
653.66	1076.74
654.00	1072.46
654.34	1071.71
654.69	1075.01
655.03	1075.22
655.37	1075.66
655.71	1079.71
656.05	1082.17
656.40	1085.14
656.74	1086.45
657.08	1086.52
657.42	1085.80
657.76	1085.70
658.11	1086.06
658.45	1082.36
658.79	1085.52
659.13	1086.92
659.47	1085.26
659.82	1083.74
660.16	1087.62
660.50	1082.52
660.84	1082.38
661.18	1082.19
661.52	1080.27
661.87	1080.04
662.21	1079.06
662.55	1079.22
662.89	1079.27
663.23	1081.96
663.57	1083.60
663.91	1085.45
664.25	1084.44
664.60	1084.74
664.94	1081.12
665.28	1076.88
665.62	1079.24
665.96	1078.19
666.30	1077.47
666.64	1078.73
666.98	1080.30
667.32	1081.49
667.66	1082.01
668.01	1080.98
668.35	1083.50
668.69	1085.87
669.03	1082.29
669.37	1083.74
669.71	1086.94
670.05	1089.94
670.39	1089.19
670.73	1088.93
671.07	1088.12
671.41	1084.37
671.75	1079.24
672.09	1077.63
672.43	1077.89
672.77	1078.17
673.11	1082.19
673.45	1082.69
673.79	1084.56
674.13	1083.86
674.47	1082.61
674.81	1082.45
675.15	1083.18
675.49	1082.59
675.83	1081.14
676.17	1083.34
676.51	1078.82
676.85	1079.34
677.19	1079.31
677.53	1080.46
677.87	1081.44
678.21	1083.86
678.55	1084.79
678.89	1083.71
679.23	1085.07
679.57	1081.42
679.90	1082.69
680.24	1081.87
680.58	1082.52
680.92	1082.43
681.26	1081.61
681.60	1081.02
681.94	1081.58
682.28	1082.97
682.62	1083.08
682.96	1084.60
683.29	1086.38
683.63	1085.14
683.97	1084.39
684.31	1083.41
684.65	1081.54
684.99	1078.05
685.33	1075.20
685.67	1073.14
686.00	1074.63
686.34	1077.25
686.68	1075.80
687.02	1076.46
687.36	1078.94
687.70	1077.61
688.03	1076.81
688.37	1080.06
688.71	1082.01
689.05	1081.63
689.39	1084.81
689.72	1089.38
690.06	1091.13
690.40	1091.58
690.74	1090.15
691.08	1088.07
691.41	1086.99
691.75	1084.93
692.09	1086.08
692.43	1092.84
692.76	1094.60
693.10	1090.74
693.44	1088.40
693.78	1089.10
694.11	1084.96
694.45	1084.56
694.79	1084.53
695.13	1085.89
695.46	1083.90
695.80	1081.21
696.14	1083.11
696.48	1083.67
696.81	1083.04
697.15	1079.13
697.49	1078.99
697.82	1077.30
698.16	1079.38
698.50	1079.13
698.83	1081.28
699.17	1081.87
699.51	1081.26
699.84	1077.93
700.18	1078.47
700.52	1079.95
700.85	1077.96
701.19	1076.93
701.53	1079.34
701.86	1079.83
702.20	1079.41
702.54	1080.13
702.87	1079.06
703.21	1078.92
703.55	1078.17
703.88	1074.82
704.22	1075.27
704.55	1077.42
704.89	1073.84
705.23	1075.80
705.56	1079.85
705.90	1080.60
706.23	1077.33
706.57	1080.34
706.91	1077.54
707.24	1075.69
707.58	1077.98
707.91	1080.72
708.25	1084.79
708.58	1086.80
708.92	1087.97
709.26	1085.61
709.59	1086.01
709.93	1081.66
710.26	1083.62
710.60	1084.07
710.93	1085.94
711.27	1084.77
711.60	1082.76
711.94	1081.63
712.27	1083.53
712.61	1082.59
712.94	1083.29
713.28	1087.41
713.61	1084.96
713.95	1082.36
714.28	1080.98
714.62	1079.36
714.95	1077.44
715.29	1076.88
715.62	1075.78
715.96	1073.70
716.29	1072.50
716.63	1072.27
716.96	1070.94
717.29	1071.50
717.63	1074.66
717.96	1075.20
718.30	1073.91
718.63	1079.60
718.97	1080.02
719.30	1077.96
719.63	1077.77
719.97	1080.91
720.30	1081.19
720.64	1082.24
720.97	1084.00
721.30	1087.16
721.64	1087.67
721.97	1082.78
722.31	1082.69
722.64	1082.45
722.97	1080.98
723.31	1082.05
723.64	1084.79
723.97	1086.27
724.31	1088.19
724.64	1088.98
724.98	1083.55
725.31	1082.17
725.64	1084.46
725.98	1083.62
726.31	1080.37
726.64	1081.96
726.97	1082.19
727.31	1078.17
727.64	1078.82
727.97	1080.37
728.31	1079.27
728.64	1081.21
728.97	1082.85
729.31	1082.24
729.64	1084.77
729.97	1085.66
730.30	1084.14
730.64	1087.30
730.97	1088.63
731.30	1085.61
731.63	1085.68
731.97	1084.96
732.30	1079.64
732.63	1078.05
732.96	1077.44
733.30	1078.38
733.63	1078.89
733.96	1080.56
734.29	1078.66
734.63	1078.87
734.96	1078.94
735.29	1084.79
735.62	1085.70
735.95	1087.09
736.29	1089.07
736.62	1089.89
736.95	1085.40
737.28	1081.14
737.61	1083.13
737.94	1082.12
738.28	1080.95
738.61	1083.27
738.94	1083.25
739.27	1081.58
739.60	1082.66
739.93	1081.56
740.27	1077.30
740.60	1078.82
740.93	1078.64
741.26	1078.85
741.59	1083.04
741.92	1083.01
742.25	1083.50
742.58	1083.41
742.91	1086.06
743.25	1085.47
743.58	1086.13
743.91	1085.68
744.24	1087.18
744.57	1084.89
744.90	1082.83
745.23	1080.27
745.56	1081.16
745.89	1080.60
746.22	1076.25
746.55	1076.53
746.88	1082.24
747.21	1084.35
747.54	1084.02
747.87	1085.68
748.20	1085.66
748.53	1081.73
748.87	1078.24
749.20	1078.99
749.53	1079.15
749.86	1078.54
750.19	1080.67
750.52	1080.63
750.85	1081.61
751.18	1084.30
751.51	1084.79
751.84	1087.16
752.16	1089.40
752.49	1087.93
752.82	1086.34
753.15	1087.62
753.48	1085.24
753.81	1084.44
754.14	1085.59
754.47	1086.76
754.80	1082.01
755.13	1078.54
755.46	1079.95
755.79	1077.51
756.12	1079.53
756.45	1081.61
756.78	1081.66
757.11	1080.25
757.43	1082.05
757.76	1079.62
758.09	1080.16
758.42	1082.50
758.75	1082.01
759.08	1080.63
759.41	1079.62
759.74	1081.37
760.07	1079.06
760.39	1075.36
760.72	1075.90
761.05	1076.32
761.38	1076.01
761.71	1081.77
762.04	1084.60
762.36	1084.56
762.69	1084.04
763.02	1084.07
763.35	1081.00
763.68	1082.15
764.01	1083.90
764.33	1085.14
764.66	1082.36
764.99	1079.92
765.32	1080.60
765.65	1079.97
765.97	1077.91
766.30	1078.40
766.63	1078.89
766.96	1077.98
767.28	1078.12
767.61	1081.26
767.94	1080.30
768.27	1082.10
768.59	1080.70
768.92	1076.60
769.25	1076.11
769.58	1077.33
769.90	1078.45
770.23	1080.60
770.56	1085.45
770.89	1082.10
771.21	1080.58
771.54	1078.40
771.87	1079.41
772.19	1076.51
772.52	1081.40
772.85	1083.67
773.17	1082.73
773.50	1079.81
773.83	1078.43
774.15	1078.28
774.48	1078.47
774.81	1077.23
775.13	1076.13
775.46	1075.94
775.79	1072.22
776.11	1070.00
776.44	1071.80
776.77	1072.69
777.09	1072.22
777.42	1072.34
777.74	1074.59
778.07	1072.97
778.40	1074.26
778.72	1075.24
779.05	1077.77
779.37	1073.46
779.70	1074.89
780.03	1074.17
780.35	1078.50
780.68	1076.01
781.00	1079.69
781.33	1078.57
781.65	1078.12
781.98	1076.83
782.31	1078.89
782.63	1080.27
782.96	1082.61
783.28	1082.40
783.61	1082.03
783.93	1082.33
784.26	1083.32
784.58	1082.54
784.91	1084.28
785.23	1084.18
785.56	1083.39
785.88	1079.88
786.21	1079.15
786.53	1078.75
786.86	1077.96
787.18	1076.41
787.51	1076.06
787.83	1076.08
788.16	1077.44
788.48	1077.28
788.81	1080.65
789.13	1080.11
789.46	1079.43
789.78	1077.23
790.10	1078.54
790.43	1076.83
790.75	1078.26
791.08	1081.02
791.40	1082.31
791.73	1083.13
792.05	1082.66
792.37	1082.94
792.70	1081.94
793.02	1082.52
793.35	1078.78
793.67	1079.88
793.99	1079.10
794.32	1077.93
794.64	1078.66
794.96	1078.21
795.29	1078.71
795.61	1078.99
795.93	1078.47
796.26	1078.36
796.58	1077.91
796.91	1079.01
797.23	1081.51
797.55	1084.42
797.87	1080.70
798.20	1079.48
798.52	1075.24
798.84	1072.25
799.17	1069.81
799.49	1072.18
799.81	1076.01
800.14	1077.35
800.46	1079.24
800.78	1082.24
801.10	1083.93
801.43	1083.04
801.75	1084.93
802.07	1083.13
802.40	1080.70
802.72	1077.61
803.04	1077.84
803.36	1077.86
803.69	1079.46
804.01	1081.44
804.33	1081.80
804.65	1081.96
804.97	1077.91
805.30	1078.64
805.62	1076.25
805.94	1077.25
806.26	1080.84
806.58	1081.66
806.91	1082.69
807.23	1080.63
807.55	1080.95
807.87	1078.78
808.19	1082.73
808.52	1082.33
808.84	1086.06
809.16	1083.83
809.48	1083.20
809.80	1083.41
810.12	1081.00
810.44	1080.60
810.77	1082.40
811.09	1079.17
811.41	1078.50
811.73	1077.96
812.05	1077.00
812.37	1074.98
812.69	1077.84
813.01	1076.01
813.33	1081.56
813.66	1081.05
813.98	1082.73
814.30	1080.30
814.62	1081.05
814.94	1076.11
815.26	1077.47
815.58	1078.75
815.90	1080.65
816.22	1079.29
816.54	1079.24
816.86	1078.92
817.18	1078.31
817.50	1079.48
817.82	1080.04
818.14	1080.72
818.46	1083.81
818.78	1082.17
819.10	1079.62
819.42	1080.70
819.74	1080.70
820.06	1076.81
820.38	1078.00
820.70	1081.35
821.02	1083.06
821.34	1080.32
821.66	1078.85
821.98	1074.52
822.30	1075.01
822.62	1073.37
822.94	1074.82
823.26	1077.47
823.58	1083.67
823.90	1082.01
824.22	1081.35
824.54	1084.18
824.86	1084.77
825.18	1081.35
825.50	1079.17
825.81	1079.48
826.13	1079.85
826.45	1078.12
826.77	1080.27
827.09	1078.92
827.41	1075.66
827.73	1073.98
828.05	1076.90
828.36	1076.32
828.68	1078.61
829.00	1081.91
829.32	1078.68
829.64	1078.24
829.96	1078.78
830.28	1079.22
830.59	1080.74
830.91	1083.43
831.23	1082.45
831.55	1081.47
831.87	1082.29
832.19	1078.89
832.50	1079.06
832.82	1080.34
833.14	1079.27
833.46	1080.11
833.78	1084.79
834.09	1086.80
834.41	1084.35
834.73	1085.84
835.05	1083.90
835.36	1078.54
835.68	1077.09
836.00	1076.53
836.32	1077.23
836.63	1077.16
836.95	1076.37
837.27	1074.38
837.59	1075.45
837.90	1071.92
838.22	1073.11
838.54	1077.56
838.85	1079.85
839.17	1079.90
839.49	1081.12
839.80	1080.37
840.12	1078.99
840.44	1078.99
840.76	1077.42
841.07	1080.41
841.39	1081.14
841.71	1080.34
842.02	1081.63
842.34	1084.28
842.65	1081.63
842.97	1082.54
843.29	1082.99
843.60	1083.53
843.92	1081.77
844.24	1081.61
844.55	1082.83
844.87	1084.44
845.18	1081.44
845.50	1083.93
845.82	1083.46
846.13	1080.20
846.45	1077.44
846.76	1077.63
847.08	1074.49
847.40	1075.27
847.71	1075.69
848.03	1079.01
848.34	1077.93
848.66	1079.69
848.97	1079.62
849.29	1081.61
849.60	1078.00
849.92	1077.28
850.24	1077.16
850.55	1081.70
850.87	1080.98
851.18	1083.93
851.50	1085.14
851.81	1083.71
852.13	1079.88
852.44	1077.49
852.76	1074.26
853.07	1076.86
853.39	1077.28
853.70	1079.20
854.01	1081.28
854.33	1081.16
854.64	1079.20
854.96	1079.31
855.27	1076.67
855.59	1077.93
855.90	1082.08
856.22	1082.80
856.53	1084.28
856.84	1084.84
857.16	1082.12
857.47	1078.64
857.79	1076.88
858.10	1073.88
858.41	1073.58
858.73	1071.12
859.04	1070.49
859.36	1072.25
859.67	1074.00
859.98	1075.15
860.30	1078.17
860.61	1076.34
860.92	1073.72
861.24	1073.65
861.55	1072.57
861.87	1071.29
862.18	1075.97
862.49	1078.07
862.81	1079.34
863.12	1082.33
863.43	1084.32
863.74	1083.86
864.06	1084.91
864.37	1081.66
864.68	1077.56
865.00	1074.89
865.31	1073.37
865.62	1074.73
865.94	1076.74
866.25	1079.22
866.56	1082.29
866.87	1083.08
867.19	1078.94
867.50	1080.37
867.81	1079.01
868.12	1079.50
868.44	1078.17
868.75	1078.80
869.06	1079.60
869.37	1080.23
869.68	1077.77
870.00	1079.06
870.31	1081.98
870.62	1082.05
870.93	1079.81
871.24	1081.47
871.56	1082.26
871.87	1080.53
872.18	1079.50
872.49	1079.17
872.80	1077.96
873.12	1077.68
873.43	1079.22
873.74	1079.27
874.05	1081.42
874.36	1081.33
874.67	1081.26
874.98	1076.83
875.29	1075.31
875.61	1075.50
875.92	1074.75
876.23	1073.21
876.54	1073.95
876.85	1075.29
877.16	1074.89
877.47	1075.15
877.78	1074.61
878.09	1075.05
878.40	1074.38
878.72	1076.32
879.03	1081.19
879.34	1078.59
879.65	1078.96
879.96	1079.76
880.27	1077.98
880.58	1072.29
880.89	1076.48
881.20	1076.74
881.51	1078.03
881.82	1078.80
882.13	1084.02
882.44	1083.43
882.75	1083.86
883.06	1079.53
883.37	1078.21
883.68	1076.04
883.99	1077.28
884.30	1076.60
884.61	1079.43
884.92	1080.79
885.23	1078.85
885.54	1077.89
885.85	1078.12
886.16	1077.00
886.47	1075.59
886.78	1076.48
887.08	1076.23
887.39	1076.04
887.70	1077.93
888.01	1079.62
888.32	1080.27
888.63	1080.37
888.94	1078.78
889.25	1076.20
889.56	1073.56
889.87	1073.72
890.17	1074.54
890.48	1077.18
890.79	1078.85
891.10	1080.41
891.41	1079.34
891.72	1080.74
892.03	1079.78
892.34	1079.95
892.64	1079.27
892.95	1078.47
893.26	1075.22
893.57	1076.93
893.88	1076.20
894.18	1074.80
894.49	1078.05
894.80	1081.51
895.11	1081.21
895.42	1083.76
895.72	1088.93
896.03	1087.04
896.34	1084.18
896.65	1081.58
896.96	1082.26
897.26	1079.55
897.57	1077.61
897.88	1078.26
898.19	1078.14
898.49	1074.07
898.80	1071.66
899.11	1071.17
899.41	1070.26
899.72	1073.00
900.03	1074.24
900.34	1075.97
900.64	1078.31
900.95	1078.71
901.26	1077.51
901.56	1076.25
901.87	1076.13
902.18	1075.36
902.48	1076.27
902.79	1077.56
903.10	1080.79
903.40	1080.77
903.71	1081.89
904.02	1080.34
904.32	1080.95
904.63	1077.98
904.94	1080.23
905.24	1075.50
905.55	1076.79
905.85	1074.38
906.16	1078.45
906.47	1078.50
906.77	1083.04
907.08	1085.42
907.38	1086.83
907.69	1083.34
908.00	1080.16
908.30	1077.02
908.61	1073.30
908.91	1071.36
909.22	1071.90
909.52	1072.85
909.83	1074.94
910.14	1079.41
910.44	1081.80
910.75	1079.69
911.05	1079.17
911.36	1079.85
911.66	1075.92
911.97	1074.87
912.27	1078.17
912.58	1079.38
912.88	1078.75
913.19	1079.85
913.49	1080.23
913.80	1080.25
914.10	1078.71
914.41	1079.60
914.71	1077.86
915.01	1077.14
915.32	1075.62
915.62	1077.54
915.93	1076.46
916.23	1078.54
916.54	1078.75
916.84	1078.85
917.15	1076.88
917.45	1073.84
917.75	1076.53
918.06	1078.05
918.36	1079.22
918.67	1082.01
918.97	1085.40
919.27	1081.49
919.58	1081.07
919.88	1079.95
920.18	1078.78
920.49	1080.20
920.79	1079.95
921.10	1079.76
921.40	1082.10
921.70	1082.38
922.01	1080.58
922.31	1081.73
922.61	1083.43
922.92	1081.61
923.22	1080.06
923.52	1082.10
923.82	1079.99
924.13	1079.22
924.43	1079.85
924.73	1081.66
925.04	1078.00
925.34	1083.32
925.64	1083.08
925.94	1081.28
926.25	1079.95
926.55	1084.81
926.85	1081.49
927.15	1085.52
927.46	1088.75
927.76	1090.74
928.06	1085.05
928.36	1085.24
928.67	1081.23
928.97	1079.24
929.27	1076.72
929.57	1078.73
929.87	1078.61
930.18	1078.31
930.48	1077.33
930.78	1079.83
931.08	1081.35
931.38	1079.62
931.69	1079.24
931.99	1078.54
932.29	1078.28
932.59	1078.85
932.89	1081.30
933.19	1080.44
933.49	1083.15
933.80	1080.25
934.10	1080.91
934.40	1080.41
934.70	1080.51
935.00	1077.70
935.30	1081.05
935.60	1077.54
935.90	1076.86
936.20	1076.65
936.50	1080.56
936.81	1080.20
937.11	1083.97
937.41	1085.49
937.71	1084.63
938.01	1082.78
938.31	1082.12
938.61	1082.66
938.91	1081.96
939.21	1082.05
939.51	1080.41
939.81	1081.28
940.11	1080.32
940.41	1079.41
940.71	1080.11
941.01	1081.07
941.31	1080.34
941.61	1081.23
941.91	1081.28
942.21	1081.23
942.51	1084.60
942.81	1083.67
943.11	1081.56
943.41	1082.61
943.71	1083.95
944.01	1080.25
944.31	1082.05
944.61	1080.56
944.90	1077.25
945.20	1075.64
945.50	1076.65
945.80	1073.70
946.10	1073.63
946.40	1074.24
946.70	1075.34
947.00	1072.27
947.30	1072.88
947.60	1072.95
947.89	1074.31
948.19	1073.32
948.49	1076.04
948.79	1075.05
949.09	1074.24
949.39	1074.82
949.69	1074.05
949.98	1074.31
950.28	1074.84
950.58	1077.77
950.88	1079.57
951.18	1084.11
951.48	1084.04
951.77	1083.97
952.07	1084.46
952.37	1081.30
952.67	1081.61
952.97	1078.12
953.26	1078.14
953.56	1077.42
953.86	1076.30
954.16	1071.94
954.45	1075.90
954.75	1078.17
955.05	1076.79
955.35	1079.46
955.64	1083.32
955.94	1082.87
956.24	1080.53
956.54	1084.11
956.83	1083.55
957.13	1081.42
957.43	1080.72
957.72	1083.43
958.02	1080.98
958.32	1082.17
958.61	1083.50
958.91	1084.51
959.21	1085.42
959.50	1083.95
959.80	1081.56
960.10	1080.86
960.39	1084.02
960.69	1084.07
960.99	1084.00
961.28	1084.79
961.58	1082.99
961.87	1079.57
962.17	1075.83
962.47	1074.66
962.76	1072.92
963.06	1074.28
963.36	1073.93
963.65	1076.13
963.95	1078.57
964.24	1081.68
964.54	1081.61
964.83	1079.50
965.13	1075.66
965.42	1075.03
965.72	1075.03
966.02	1076.39
966.31	1082.15
966.61	1086.06
966.90	1089.26
967.20	1091.49
967.49	1090.55
967.79	1087.02
968.08	1087.30
968.38	1085.84
968.67	1082.76
968.97	1082.97
969.26	1085.94
969.56	1086.50
969.85	1085.35
970.15	1083.83
970.44	1080.63
970.74	1076.86
971.03	1073.93
971.32	1073.74
971.62	1075.24
971.91	1077.96
972.21	1078.10
972.50	1079.38
972.80	1079.22
973.09	1077.25
973.38	1072.90
973.68	1071.78
973.97	1073.49
974.27	1075.45
974.56	1076.83
974.85	1082.22
975.15	1080.98
975.44	1082.29
975.73	1081.12
976.03	1082.31
976.32	1079.71
976.61	1081.94
976.91	1079.27
977.20	1075.41
977.49	1072.13
977.79	1073.44
978.08	1072.22
978.37	1072.39
978.67	1077.14
978.96	1081.68
979.25	1080.88
979.55	1079.03
979.84	1075.29
980.13	1072.48
980.42	1070.49
980.72	1070.96
981.01	1073.07
981.30	1078.45
981.59	1078.07
981.89	1078.33
982.18	1080.34
982.47	1082.71
982.76	1079.90
983.06	1082.73
983.35	1081.84
983.64	1080.67
983.93	1078.17
984.22	1077.70
984.52	1078.38
984.81	1081.16
985.10	1080.09
985.39	1079.38
985.68	1082.08
985.97	1081.35
986.27	1081.37
986.56	1082.15
986.85	1084.72
987.14	1085.28
987.43	1083.62
987.72	1082.31
988.01	1083.53
988.31	1084.09
988.60	1081.94
988.89	1079.69
989.18	1078.21
989.47	1073.18
989.76	1073.74
990.05	1074.77
990.34	1075.22
990.63	1076.41
990.92	1078.31
991.21	1077.79
991.51	1075.29
991.80	1076.51
992.09	1076.15
992.38	1074.82
992.67	1073.93
992.96	1075.69
993.25	1073.42
993.54	1074.03
993.83	1077.21
994.12	1077.00
994.41	1077.40
994.70	1081.49
994.99	1078.61
995.28	1079.15
995.57	1080.34
995.86	1079.24
996.15	1080.09
996.44	1084.86
996.73	1085.75
997.02	1085.31
997.31	1086.52
997.59	1083.88
997.88	1080.18
998.17	1078.59
998.46	1075.99
998.75	1076.60
999.04	1079.24
999.33	1081.89
999.62	1084.25
999.91	1086.10
1000.20	1084.42
1000.49	1082.54
1000.77	1083.13
1001.06	1079.81
1001.35	1081.21
1001.64	1080.41
1001.93	1082.17
1002.22	1079.01
1002.51	1077.02
1002.79	1073.14
1003.08	1074.00
1003.37	1072.81
1003.66	1076.18
1003.95	1081.02
1004.23	1081.82
1004.52	1084.65
1004.81	1084.86
1005.10	1084.72
1005.39	1082.40
1005.67	1085.77
1005.96	1084.39
1006.25	1085.75
1006.54	1084.37
1006.83	1085.52
1007.11	1083.18
1007.40	1083.93
1007.69	1083.50
1007.97	1083.81
1008.26	1083.86
1008.55	1084.04
1008.84	1082.12
1009.12	1080.60
1009.41	1081.80
1009.70	1079.24
1009.98	1080.34
1010.27	1080.77
1010.56	1078.94
1010.85	1076.20
1011.13	1081.09
1011.42	1081.96
1011.71	1082.99
1011.99	1084.23
1012.28	1085.40
1012.56	1083.55
1012.85	1082.17
1013.14	1081.66
1013.42	1081.02
1013.71	1078.31
1014.00	1075.52
1014.28	1075.05
1014.57	1074.63
1014.85	1078.19
1015.14	1080.48
1015.43	1080.44
1015.71	1078.57
1016.00	1077.04
1016.28	1072.74
1016.57	1071.19
1016.85	1071.85
1017.14	1073.95
1017.43	1074.14
1017.71	1074.94
1018.00	1077.28
1018.28	1076.53
1018.57	1076.95
1018.85	1078.19
1019.14	1079.57
1019.42	1078.64
1019.71	1081.00
1019.99	1080.63
1020.28	1078.45
1020.56	1078.40
1020.85	1080.06
1021.13	1081.54
1021.42	1080.91
1021.70	1083.88
1021.99	1083.95
1022.27	1079.29
1022.55	1078.52
1022.84	1064.12
>>>>>End Processed Spectral Data<<<<<
