SpectraSuite Data File
++++++++++++++++++++++++++++++++++++
Date: Mon Aug 26 10:22:02 PDT 2019
User: corrico
Dark Spectrum Present: No
Reference Spectrum Present: No
Number of Sampled Component Spectra: 1
Spectrometers: USB2+H06089
Integration Time (usec): 2000 (USB2+H06089)
Spectra Averaged: 20 (USB2+H06089)
Boxcar Smoothing: 2 (USB2+H06089)
Correct for Electrical Dark: No (USB2+H06089)
Strobe/Lamp Enabled: No (USB2+H06089)
Correct for Detector Non-linearity: No (USB2+H06089)
Correct for Stray Light: No (USB2+H06089)
Number of Pixels in Processed Spectrum: 2048
>>>>>Begin Processed Spectral Data<<<<<
339.70	1013.80
340.07	1013.80
340.45	985.72
340.82	966.64
341.19	947.75
341.57	925.80
341.94	914.75
342.31	907.99
342.69	905.09
343.06	901.86
343.43	899.07
343.81	901.76
344.18	903.42
344.55	906.07
344.93	909.65
345.30	916.83
345.67	922.15
346.04	931.21
346.42	938.13
346.79	945.79
347.16	954.56
347.54	962.15
347.91	968.68
348.28	979.98
348.65	993.09
349.03	1002.97
349.40	1012.12
349.77	1018.62
350.14	1023.40
350.52	1027.26
350.89	1032.29
351.26	1039.22
351.63	1045.28
352.01	1051.77
352.38	1057.99
352.75	1065.27
353.12	1068.71
353.50	1075.85
353.87	1079.01
354.24	1078.36
354.61	1077.04
354.98	1079.36
355.36	1076.04
355.73	1075.69
356.10	1077.04
356.47	1080.18
356.84	1079.95
357.22	1079.57
357.59	1083.20
357.96	1083.06
358.33	1081.61
358.70	1080.13
359.08	1084.02
359.45	1080.27
359.82	1080.74
360.19	1081.42
360.56	1083.01
360.94	1079.69
361.31	1077.65
361.68	1078.75
362.05	1078.10
362.42	1079.13
362.79	1078.38
363.16	1080.23
363.54	1077.61
363.91	1076.15
364.28	1076.79
364.65	1076.60
365.02	1073.91
365.39	1072.08
365.76	1072.76
366.14	1069.74
366.51	1070.54
366.88	1073.23
367.25	1073.35
367.62	1071.26
367.99	1069.88
368.36	1069.18
368.73	1068.13
369.10	1068.34
369.48	1071.47
369.85	1073.70
370.22	1073.86
370.59	1072.57
370.96	1073.21
371.33	1070.47
371.70	1068.27
372.07	1067.12
372.44	1070.94
372.81	1071.03
373.18	1070.98
373.55	1074.89
373.93	1076.74
374.30	1075.50
374.67	1075.99
375.04	1075.52
375.41	1073.70
375.78	1073.70
376.15	1074.54
376.52	1077.47
376.89	1079.41
377.26	1080.34
377.63	1081.73
378.00	1082.05
378.37	1079.46
378.74	1081.40
379.11	1083.29
379.48	1082.52
379.85	1083.97
380.22	1083.62
380.59	1078.75
380.96	1075.64
381.33	1074.75
381.70	1073.44
382.07	1077.18
382.44	1083.88
382.81	1086.08
383.18	1087.18
383.55	1084.58
383.92	1080.77
384.29	1077.33
384.66	1074.98
385.03	1078.87
385.40	1080.30
385.77	1079.43
386.14	1078.10
386.51	1078.07
386.88	1075.80
387.25	1075.99
387.62	1079.10
387.99	1081.07
388.36	1080.77
388.73	1079.99
389.10	1081.07
389.46	1081.09
389.83	1081.07
390.20	1081.66
390.57	1083.86
390.94	1082.54
391.31	1083.97
391.68	1083.11
392.05	1085.59
392.42	1082.08
392.79	1081.87
393.16	1084.25
393.53	1087.37
393.89	1088.91
394.26	1091.74
394.63	1092.68
395.00	1087.72
395.37	1086.71
395.74	1084.11
396.11	1082.71
396.48	1084.63
396.84	1084.21
397.21	1084.37
397.58	1083.43
397.95	1084.46
398.32	1082.66
398.69	1086.83
399.06	1084.72
399.42	1084.86
399.79	1086.17
400.16	1084.56
400.53	1082.24
400.90	1082.99
401.27	1084.18
401.64	1082.45
402.00	1087.53
402.37	1088.96
402.74	1089.66
403.11	1089.19
403.48	1089.17
403.84	1087.11
404.21	1085.75
404.58	1084.96
404.95	1088.12
405.32	1088.00
405.68	1088.09
406.05	1089.07
406.42	1090.15
406.79	1086.52
407.16	1088.02
407.52	1089.54
407.89	1087.44
408.26	1088.98
408.63	1090.32
408.99	1090.43
409.36	1091.58
409.73	1093.19
410.10	1090.97
410.47	1091.93
410.83	1094.06
411.20	1094.79
411.57	1095.58
411.94	1096.66
412.30	1094.50
412.67	1090.99
413.04	1089.96
413.40	1091.25
413.77	1092.87
414.14	1096.40
414.51	1102.09
414.87	1103.12
415.24	1101.57
415.61	1104.92
415.97	1104.71
416.34	1101.41
416.71	1102.42
417.08	1103.23
417.44	1103.75
417.81	1105.22
418.18	1108.08
418.54	1105.83
418.91	1108.59
419.28	1105.11
419.64	1105.65
420.01	1106.77
420.38	1107.14
420.74	1111.36
421.11	1113.23
421.48	1115.01
421.84	1116.62
422.21	1119.29
422.58	1116.90
422.94	1123.34
423.31	1128.44
423.68	1128.93
424.04	1134.32
424.41	1138.11
424.77	1136.56
425.14	1136.52
425.51	1142.25
425.87	1144.36
426.24	1151.22
426.61	1158.59
426.97	1163.85
427.34	1169.50
427.70	1172.77
428.07	1177.52
428.44	1183.68
428.80	1192.11
429.17	1198.17
429.53	1208.32
429.90	1222.18
430.27	1231.50
430.63	1242.01
431.00	1254.15
431.36	1268.29
431.73	1275.92
432.09	1289.73
432.46	1302.53
432.83	1316.39
433.19	1333.87
433.56	1355.45
433.92	1376.40
434.29	1400.58
434.65	1424.29
435.02	1446.43
435.38	1470.75
435.75	1496.59
436.11	1528.51
436.48	1565.82
436.84	1600.51
437.21	1636.22
437.57	1677.32
437.94	1715.89
438.30	1756.83
438.67	1802.33
439.03	1852.32
439.40	1905.36
439.76	1958.91
440.13	2016.39
440.49	2081.93
440.86	2149.06
441.22	2221.99
441.59	2299.18
441.95	2389.55
442.32	2474.23
442.68	2569.04
443.05	2669.19
443.41	2775.66
443.78	2877.29
444.14	2993.69
444.51	3105.80
444.87	3241.95
445.24	3372.69
445.60	3513.64
445.96	3658.63
446.33	3831.74
446.69	3988.11
447.06	4174.88
447.42	4363.13
447.79	4571.14
448.15	4796.37
448.51	5021.20
448.88	5266.32
449.24	5503.04
449.61	5789.99
449.97	6089.21
450.33	6410.87
450.70	6723.61
451.06	7103.74
451.43	7433.82
451.79	7815.66
452.15	8214.02
452.52	8650.11
452.88	9092.91
453.24	9598.54
453.61	10141.85
453.97	10680.50
454.34	11222.89
454.70	11842.34
455.06	12471.90
455.43	13060.70
455.79	13646.63
456.15	14340.51
456.52	15014.02
456.88	15837.40
457.24	16644.65
457.61	17592.64
457.97	18458.71
458.33	19349.00
458.70	20187.05
459.06	21005.58
459.42	21864.14
459.79	22668.67
460.15	23568.00
460.51	24377.69
460.88	25234.58
461.24	26006.93
461.60	26925.62
461.96	27731.74
462.33	28521.93
462.69	29373.61
463.05	30260.41
463.42	31096.64
463.78	31845.89
464.14	32502.34
464.50	33165.11
464.87	33679.54
465.23	33989.91
465.59	34356.98
465.95	34696.10
466.32	34933.10
466.68	35181.90
467.04	35382.86
467.40	35526.99
467.77	35687.06
468.13	35717.14
468.49	35619.30
468.85	35544.83
469.22	35444.91
469.58	35224.27
469.94	35038.57
470.30	34836.77
470.66	34473.89
471.03	33883.49
471.39	33443.47
471.75	32749.29
472.11	32047.81
472.47	31566.20
472.84	31135.54
473.20	30486.27
473.56	30083.37
473.92	29567.82
474.28	29012.04
474.65	28466.25
475.01	27982.74
475.37	27389.51
475.73	26912.35
476.09	26386.64
476.45	25916.47
476.81	25468.63
477.18	25016.28
477.54	24619.04
477.90	24279.24
478.26	23842.80
478.62	23455.00
478.98	23152.51
479.34	22865.61
479.71	22461.28
480.07	22115.79
480.43	21751.86
480.79	21303.95
481.15	20852.02
481.51	20489.59
481.87	20188.10
482.23	19882.57
482.59	19618.30
482.96	19317.92
483.32	19008.66
483.68	18635.13
484.04	18268.75
484.40	17907.72
484.76	17565.58
485.12	17210.68
485.48	16931.81
485.84	16627.82
486.20	16322.10
486.56	15971.82
486.92	15653.83
487.28	15280.73
487.64	14899.94
488.00	14532.43
488.37	14164.08
488.73	13762.54
489.09	13366.05
489.45	13027.96
489.81	12685.75
490.17	12382.44
490.53	12093.52
490.89	11784.06
491.25	11462.84
491.61	11126.42
491.97	10800.43
492.33	10492.57
492.69	10206.26
493.05	9933.65
493.41	9677.13
493.77	9403.73
494.13	9132.68
494.49	8875.78
494.85	8614.55
495.21	8362.55
495.57	8135.96
495.93	7911.43
496.29	7685.41
496.64	7485.41
497.00	7290.68
497.36	7096.76
497.72	6919.09
498.08	6771.05
498.44	6605.44
498.80	6440.12
499.16	6279.89
499.52	6113.06
499.88	5944.61
500.24	5800.78
500.60	5669.97
500.96	5540.09
501.32	5415.55
501.68	5286.50
502.03	5147.42
502.39	5011.20
502.75	4881.73
503.11	4768.44
503.47	4665.65
503.83	4566.24
504.19	4458.93
504.55	4350.94
504.91	4241.07
505.26	4134.74
505.62	4026.03
505.98	3936.20
506.34	3837.21
506.70	3748.04
507.06	3662.77
507.42	3580.55
507.78	3498.49
508.13	3430.55
508.49	3354.36
508.85	3280.59
509.21	3207.99
509.57	3143.25
509.93	3066.78
510.28	2996.56
510.64	2934.31
511.00	2876.38
511.36	2810.45
511.72	2756.43
512.07	2705.61
512.43	2654.35
512.79	2605.39
513.15	2559.14
513.51	2514.06
513.86	2471.96
514.22	2427.81
514.58	2381.54
514.94	2339.04
515.30	2300.82
515.65	2262.76
516.01	2229.69
516.37	2198.21
516.73	2165.63
517.08	2136.82
517.44	2100.77
517.80	2068.31
518.16	2033.88
518.51	2005.93
518.87	1975.18
519.23	1949.95
519.59	1926.07
519.94	1899.32
520.30	1874.65
520.66	1850.26
521.01	1826.95
521.37	1802.87
521.73	1781.59
522.09	1758.00
522.44	1736.30
522.80	1715.10
523.16	1693.14
523.51	1674.63
523.87	1657.40
524.23	1640.41
524.58	1625.13
524.94	1607.04
525.30	1590.11
525.65	1571.06
526.01	1550.07
526.37	1532.72
526.72	1517.72
527.08	1505.55
527.44	1492.96
527.79	1482.31
528.15	1468.10
528.51	1459.49
528.86	1445.73
529.22	1435.99
529.58	1425.22
529.93	1417.80
530.29	1406.66
530.65	1397.02
531.00	1386.14
531.36	1377.17
531.71	1368.89
532.07	1359.90
532.43	1352.08
532.78	1344.01
533.14	1334.85
533.49	1323.69
533.85	1318.14
534.21	1313.04
534.56	1308.48
534.92	1305.90
535.27	1304.40
535.63	1296.68
535.98	1289.56
536.34	1281.05
536.69	1273.06
537.05	1264.38
537.41	1258.27
537.76	1252.00
538.12	1249.80
538.47	1248.28
538.83	1243.57
539.18	1241.61
539.54	1237.53
539.89	1231.96
540.25	1226.93
540.60	1225.41
540.96	1219.72
541.31	1217.08
541.67	1213.85
542.02	1209.87
542.38	1205.56
542.73	1200.98
543.09	1199.55
543.44	1195.73
543.80	1191.94
544.15	1188.62
544.51	1185.53
544.86	1181.08
545.22	1179.37
545.57	1174.81
545.93	1172.44
546.28	1170.88
546.64	1169.43
546.99	1166.34
547.35	1166.45
547.70	1165.80
548.05	1166.57
548.41	1163.64
548.76	1163.50
549.12	1163.71
549.47	1160.41
549.83	1155.34
550.18	1157.91
550.53	1156.06
550.89	1150.79
551.24	1146.77
551.60	1148.52
551.95	1142.37
552.30	1138.86
552.66	1137.97
553.01	1137.48
553.37	1133.19
553.72	1130.69
554.07	1129.92
554.43	1129.36
554.78	1127.79
555.13	1126.27
555.49	1128.49
555.84	1125.66
556.19	1122.94
556.55	1126.43
556.90	1126.41
557.26	1123.78
557.61	1125.84
557.96	1126.43
558.32	1121.05
558.67	1119.78
559.02	1116.44
559.37	1110.09
559.73	1110.65
560.08	1110.63
560.43	1115.01
560.79	1115.24
561.14	1117.79
561.49	1114.14
561.85	1112.25
562.20	1108.29
562.55	1108.15
562.90	1109.11
563.26	1108.59
563.61	1111.01
563.96	1110.09
564.32	1110.61
564.67	1111.12
565.02	1110.72
565.37	1108.06
565.73	1108.69
566.08	1106.68
566.43	1102.84
566.78	1102.28
567.14	1102.70
567.49	1102.93
567.84	1104.69
568.19	1106.91
568.54	1105.95
568.90	1106.07
569.25	1103.70
569.60	1102.09
569.95	1101.18
570.31	1100.57
570.66	1100.31
571.01	1099.61
571.36	1099.19
571.71	1099.54
572.06	1099.93
572.42	1098.93
572.77	1095.93
573.12	1097.50
573.47	1096.14
573.82	1095.46
574.18	1093.76
574.53	1094.57
574.88	1091.84
575.23	1090.83
575.58	1089.12
575.93	1092.52
576.28	1094.20
576.64	1093.92
576.99	1094.06
577.34	1093.52
577.69	1090.48
578.04	1086.20
578.39	1087.20
578.74	1086.62
579.09	1089.96
579.44	1090.90
579.80	1094.95
580.15	1093.90
580.50	1093.26
580.85	1088.40
581.20	1085.89
581.55	1086.62
581.90	1088.07
582.25	1087.41
582.60	1092.21
582.95	1093.24
583.30	1091.09
583.65	1088.89
584.00	1089.05
584.35	1086.48
584.71	1088.51
585.06	1087.34
585.41	1087.60
585.76	1085.82
586.11	1088.82
586.46	1085.21
586.81	1087.09
587.16	1085.61
587.51	1090.90
587.86	1087.90
588.21	1088.33
588.56	1087.53
588.91	1088.84
589.26	1084.56
589.61	1086.50
589.96	1088.49
590.31	1087.25
590.66	1087.46
591.01	1090.22
591.36	1088.49
591.71	1086.17
592.06	1085.77
592.41	1084.30
592.76	1082.47
593.10	1085.19
593.45	1085.82
593.80	1087.18
594.15	1089.85
594.50	1087.79
594.85	1086.31
595.20	1087.34
595.55	1084.79
595.90	1082.05
596.25	1081.44
596.60	1078.64
596.95	1080.53
597.30	1081.80
597.64	1093.99
597.99	1095.35
598.34	1098.25
598.69	1096.45
599.04	1100.50
599.39	1089.14
599.74	1089.73
600.09	1089.22
600.44	1088.93
600.78	1086.76
601.13	1088.30
601.48	1090.74
601.83	1090.08
602.18	1088.89
602.53	1088.51
602.88	1085.52
603.22	1083.97
603.57	1081.68
603.92	1080.39
604.27	1079.90
604.62	1081.00
604.97	1078.71
605.31	1081.23
605.66	1084.56
606.01	1083.57
606.36	1083.25
606.71	1087.25
607.05	1087.48
607.40	1084.79
607.75	1087.16
608.10	1088.75
608.44	1085.12
608.79	1084.79
609.14	1086.10
609.49	1086.34
609.84	1085.17
610.18	1086.13
610.53	1087.23
610.88	1087.46
611.23	1085.84
611.57	1086.57
611.92	1089.89
612.27	1088.58
612.62	1092.37
612.96	1092.16
613.31	1091.53
613.66	1086.78
614.00	1088.82
614.35	1083.39
614.70	1081.84
615.05	1082.17
615.39	1085.45
615.74	1082.08
616.09	1082.52
616.43	1082.92
616.78	1080.93
617.13	1078.73
617.47	1080.16
617.82	1083.90
618.17	1084.30
618.51	1085.80
618.86	1089.85
619.21	1087.58
619.55	1085.19
619.90	1084.32
620.25	1083.69
620.59	1081.73
620.94	1083.18
621.29	1084.84
621.63	1087.09
621.98	1085.63
622.32	1084.21
622.67	1087.88
623.02	1085.59
623.36	1083.86
623.71	1085.19
624.05	1083.53
624.40	1079.03
624.75	1081.73
625.09	1081.89
625.44	1083.48
625.78	1082.61
626.13	1085.91
626.48	1082.54
626.82	1084.58
627.17	1086.08
627.51	1088.35
627.86	1086.36
628.20	1086.13
628.55	1084.00
628.89	1079.29
629.24	1078.36
629.58	1081.40
629.93	1082.61
630.28	1081.16
630.62	1081.44
630.97	1083.76
631.31	1079.10
631.66	1079.31
632.00	1081.09
632.35	1083.36
632.69	1080.95
633.04	1080.63
633.38	1080.86
633.73	1081.07
634.07	1079.17
634.42	1079.20
634.76	1080.70
635.11	1080.53
635.45	1081.87
635.79	1083.57
636.14	1085.19
636.48	1084.58
636.83	1084.77
637.17	1083.01
637.52	1078.85
637.86	1077.82
638.21	1078.71
638.55	1079.34
638.89	1078.87
639.24	1085.07
639.58	1086.38
639.93	1086.59
640.27	1084.56
640.61	1084.65
640.96	1079.88
641.30	1074.45
641.65	1073.56
641.99	1072.15
642.33	1074.94
642.68	1076.93
643.02	1081.37
643.37	1083.79
643.71	1082.61
644.05	1079.64
644.40	1078.80
644.74	1081.02
645.08	1078.45
645.43	1082.43
645.77	1082.08
646.11	1082.22
646.46	1081.66
646.80	1082.22
647.14	1081.30
647.49	1082.71
647.83	1085.12
648.17	1082.15
648.52	1083.64
648.86	1083.48
649.20	1082.69
649.55	1081.68
649.89	1084.58
650.23	1082.99
650.57	1083.25
650.92	1085.94
651.26	1085.89
651.60	1087.37
651.95	1086.57
652.29	1085.03
652.63	1084.37
652.97	1083.64
653.32	1077.70
653.66	1079.62
654.00	1081.61
654.34	1080.06
654.69	1077.56
655.03	1078.38
655.37	1077.42
655.71	1080.02
656.05	1079.10
656.40	1080.91
656.74	1082.38
657.08	1081.49
657.42	1078.99
657.76	1081.19
658.11	1083.18
658.45	1082.76
658.79	1082.50
659.13	1080.09
659.47	1077.56
659.82	1073.86
660.16	1075.48
660.50	1075.87
660.84	1074.84
661.18	1074.00
661.52	1077.25
661.87	1077.18
662.21	1079.43
662.55	1082.24
662.89	1085.66
663.23	1087.72
663.57	1084.37
663.91	1083.60
664.25	1084.09
664.60	1081.47
664.94	1078.12
665.28	1079.27
665.62	1077.49
665.96	1076.88
666.30	1077.44
666.64	1077.77
666.98	1078.24
667.32	1080.70
667.66	1080.93
668.01	1080.98
668.35	1083.93
668.69	1086.66
669.03	1085.59
669.37	1083.06
669.71	1084.74
670.05	1079.06
670.39	1081.42
670.73	1079.78
671.07	1079.92
671.41	1075.90
671.75	1076.30
672.09	1072.81
672.43	1074.42
672.77	1075.97
673.11	1079.57
673.45	1080.63
673.79	1081.33
674.13	1079.57
674.47	1077.51
674.81	1077.61
675.15	1081.28
675.49	1082.90
675.83	1084.23
676.17	1087.30
676.51	1086.24
676.85	1084.04
677.19	1081.19
677.53	1083.55
677.87	1079.92
678.21	1076.18
678.55	1074.96
678.89	1075.55
679.23	1073.11
679.57	1073.44
679.90	1077.49
680.24	1079.17
680.58	1081.19
680.92	1082.12
681.26	1084.51
681.60	1083.71
681.94	1083.64
682.28	1082.19
682.62	1080.81
682.96	1079.99
683.29	1081.61
683.63	1080.56
683.97	1077.23
684.31	1078.89
684.65	1076.83
684.99	1077.82
685.33	1079.34
685.67	1083.32
686.00	1081.49
686.34	1084.84
686.68	1082.57
687.02	1083.86
687.36	1082.36
687.70	1082.24
688.03	1080.72
688.37	1080.65
688.71	1080.09
689.05	1078.80
689.39	1080.74
689.72	1083.18
690.06	1082.08
690.40	1080.32
690.74	1079.08
691.08	1082.03
691.41	1079.22
691.75	1082.22
692.09	1080.41
692.43	1082.17
692.76	1074.40
693.10	1073.46
693.44	1071.05
693.78	1072.97
694.11	1071.52
694.45	1076.51
694.79	1079.22
695.13	1078.64
695.46	1077.00
695.80	1075.83
696.14	1075.85
696.48	1075.48
696.81	1076.90
697.15	1075.87
697.49	1077.75
697.82	1077.96
698.16	1076.83
698.50	1077.02
698.83	1078.96
699.17	1076.44
699.51	1074.61
699.84	1074.98
700.18	1073.70
700.52	1075.03
700.85	1075.83
701.19	1076.44
701.53	1079.22
701.86	1081.47
702.20	1079.13
702.54	1082.61
702.87	1081.30
703.21	1081.21
703.55	1081.28
703.88	1082.29
704.22	1083.08
704.55	1085.42
704.89	1082.31
705.23	1081.37
705.56	1081.30
705.90	1081.05
706.23	1080.60
706.57	1081.56
706.91	1080.56
707.24	1083.41
707.58	1081.87
707.91	1081.00
708.25	1081.28
708.58	1083.50
708.92	1082.22
709.26	1081.82
709.59	1078.19
709.93	1079.74
710.26	1079.31
710.60	1078.14
710.93	1074.68
711.27	1078.38
711.60	1076.11
711.94	1073.95
712.27	1077.51
712.61	1081.58
712.94	1083.06
713.28	1081.73
713.61	1079.43
713.95	1076.58
714.28	1076.48
714.62	1076.55
714.95	1079.27
715.29	1078.78
715.62	1077.18
715.96	1078.64
716.29	1076.44
716.63	1074.45
716.96	1076.48
717.29	1078.00
717.63	1078.31
717.96	1077.33
718.30	1079.22
718.63	1077.84
718.97	1075.55
719.30	1072.60
719.63	1072.43
719.97	1071.01
720.30	1076.39
720.64	1077.35
720.97	1079.92
721.30	1079.03
721.64	1081.54
721.97	1077.91
722.31	1078.64
722.64	1075.29
722.97	1080.39
723.31	1078.78
723.64	1078.73
723.97	1080.51
724.31	1082.59
724.64	1078.07
724.98	1078.26
725.31	1079.06
725.64	1078.78
725.98	1080.39
726.31	1081.82
726.64	1081.00
726.97	1083.76
727.31	1082.69
727.64	1079.90
727.97	1079.22
728.31	1078.50
728.64	1076.41
728.97	1076.08
729.31	1077.58
729.64	1082.31
729.97	1083.25
730.30	1086.01
730.64	1083.41
730.97	1084.96
731.30	1080.65
731.63	1082.45
731.97	1081.23
732.30	1082.22
732.63	1081.00
732.96	1078.87
733.30	1077.40
733.63	1071.12
733.96	1073.49
734.29	1074.73
734.63	1079.48
734.96	1080.16
735.29	1085.68
735.62	1086.85
735.95	1087.04
736.29	1084.56
736.62	1082.78
736.95	1080.04
737.28	1078.89
737.61	1077.56
737.94	1077.77
738.28	1078.82
738.61	1080.37
738.94	1079.57
739.27	1078.52
739.60	1078.85
739.93	1079.34
740.27	1079.92
740.60	1079.69
740.93	1080.23
741.26	1083.41
741.59	1081.63
741.92	1080.79
742.25	1080.32
742.58	1075.45
742.91	1073.28
743.25	1075.57
743.58	1078.26
743.91	1080.41
744.24	1085.24
744.57	1081.09
744.90	1080.02
745.23	1080.46
745.56	1078.21
745.89	1079.15
746.22	1079.57
746.55	1079.01
746.88	1075.05
747.21	1076.41
747.54	1074.77
747.87	1076.55
748.20	1079.15
748.53	1079.92
748.87	1081.87
749.20	1085.19
749.53	1085.40
749.86	1082.17
750.19	1080.13
750.52	1077.23
750.85	1073.63
751.18	1079.60
751.51	1079.46
751.84	1081.40
752.16	1083.04
752.49	1086.43
752.82	1080.72
753.15	1083.01
753.48	1081.54
753.81	1079.08
754.14	1076.20
754.47	1078.19
754.80	1075.48
755.13	1077.91
755.46	1080.72
755.79	1080.46
756.12	1077.42
756.45	1079.57
756.78	1083.60
757.11	1084.25
757.43	1082.94
757.76	1082.36
758.09	1082.22
758.42	1075.50
758.75	1072.01
759.08	1073.56
759.41	1074.77
759.74	1073.28
760.07	1074.56
760.39	1074.96
760.72	1073.25
761.05	1074.33
761.38	1076.23
761.71	1080.41
762.04	1084.00
762.36	1086.41
762.69	1084.53
763.02	1084.56
763.35	1081.89
763.68	1080.53
764.01	1081.75
764.33	1081.89
764.66	1080.46
764.99	1077.79
765.32	1077.61
765.65	1073.28
765.97	1077.91
766.30	1077.23
766.63	1079.08
766.96	1079.17
767.28	1082.57
767.61	1079.92
767.94	1082.33
768.27	1084.07
768.59	1085.45
768.92	1083.83
769.25	1081.02
769.58	1078.87
769.90	1077.09
770.23	1077.37
770.56	1078.47
770.89	1079.53
771.21	1082.33
771.54	1083.32
771.87	1078.54
772.19	1077.23
772.52	1076.27
772.85	1075.10
773.17	1075.20
773.50	1075.13
773.83	1076.76
774.15	1079.71
774.48	1078.85
774.81	1073.56
775.13	1076.86
775.46	1077.72
775.79	1076.76
776.11	1075.38
776.44	1078.14
776.77	1079.55
777.09	1076.41
777.42	1078.07
777.74	1080.46
778.07	1082.43
778.40	1082.33
778.72	1080.16
779.05	1081.00
779.37	1080.84
779.70	1079.95
780.03	1076.25
780.35	1079.48
780.68	1080.93
781.00	1079.34
781.33	1078.68
781.65	1081.51
781.98	1080.72
782.31	1076.58
782.63	1076.58
782.96	1074.84
783.28	1073.63
783.61	1075.13
783.93	1075.73
784.26	1074.35
784.58	1079.10
784.91	1075.22
785.23	1074.63
785.56	1071.64
785.88	1076.90
786.21	1074.38
786.53	1076.15
786.86	1075.62
787.18	1078.38
787.51	1075.59
787.83	1076.69
788.16	1078.21
788.48	1080.98
788.81	1078.94
789.13	1077.75
789.46	1079.43
789.78	1078.47
790.10	1078.10
790.43	1080.86
790.75	1081.84
791.08	1077.14
791.40	1077.07
791.73	1080.44
792.05	1080.16
792.37	1078.03
792.70	1079.24
793.02	1080.72
793.35	1074.59
793.67	1074.68
793.99	1077.42
794.32	1083.55
794.64	1084.89
794.96	1083.39
795.29	1082.29
795.61	1084.16
795.93	1077.68
796.26	1075.29
796.58	1077.51
796.91	1076.55
797.23	1076.83
797.55	1079.71
797.87	1083.15
798.20	1083.29
798.52	1085.59
798.84	1080.53
799.17	1080.98
799.49	1076.81
799.81	1074.75
800.14	1074.91
800.46	1079.38
800.78	1076.93
801.10	1079.57
801.43	1081.68
801.75	1079.78
802.07	1077.47
802.40	1076.90
802.72	1074.45
803.04	1073.95
803.36	1075.52
803.69	1075.27
804.01	1076.95
804.33	1077.47
804.65	1077.63
804.97	1074.63
805.30	1073.88
805.62	1074.40
805.94	1075.69
806.26	1077.68
806.58	1079.99
806.91	1081.73
807.23	1081.09
807.55	1082.31
807.87	1080.34
808.19	1081.94
808.52	1079.92
808.84	1082.03
809.16	1079.92
809.48	1082.80
809.80	1082.73
810.12	1083.55
810.44	1082.38
810.77	1082.29
811.09	1078.92
811.41	1075.15
811.73	1076.04
812.05	1077.30
812.37	1077.25
812.69	1075.85
813.01	1074.14
813.33	1074.47
813.66	1072.36
813.98	1071.59
814.30	1073.67
814.62	1074.21
814.94	1071.61
815.26	1070.05
815.58	1072.50
815.90	1072.69
816.22	1077.04
816.54	1079.55
816.86	1079.76
817.18	1076.37
817.50	1080.32
817.82	1080.53
818.14	1078.50
818.46	1081.12
818.78	1082.64
819.10	1081.28
819.42	1080.27
819.74	1080.98
820.06	1081.75
820.38	1085.61
820.70	1081.51
821.02	1081.89
821.34	1082.97
821.66	1081.14
821.98	1078.73
822.30	1080.98
822.62	1078.12
822.94	1076.41
823.26	1076.58
823.58	1075.27
823.90	1076.15
824.22	1078.82
824.54	1077.77
824.86	1075.55
825.18	1076.23
825.50	1076.04
825.81	1072.01
826.13	1076.39
826.45	1077.42
826.77	1078.31
827.09	1079.20
827.41	1080.41
827.73	1078.31
828.05	1077.68
828.36	1077.37
828.68	1077.54
829.00	1082.43
829.32	1083.83
829.64	1083.57
829.96	1085.82
830.28	1085.10
830.59	1083.55
830.91	1085.66
831.23	1086.03
831.55	1082.33
831.87	1083.01
832.19	1083.46
832.50	1077.75
832.82	1076.95
833.14	1078.38
833.46	1074.05
833.78	1070.65
834.09	1072.32
834.41	1073.39
834.73	1071.73
835.05	1070.26
835.36	1071.64
835.68	1071.97
836.00	1074.35
836.32	1074.40
836.63	1077.91
836.95	1078.38
837.27	1080.27
837.59	1079.17
837.90	1078.47
838.22	1082.73
838.54	1084.21
838.85	1081.63
839.17	1078.17
839.49	1078.99
839.80	1073.42
840.12	1070.02
840.44	1068.88
840.76	1071.82
841.07	1071.52
841.39	1070.84
841.71	1072.69
842.02	1074.33
842.34	1072.92
842.65	1072.08
842.97	1073.42
843.29	1075.29
843.60	1076.23
843.92	1077.18
844.24	1078.61
844.55	1078.03
844.87	1075.94
845.18	1074.98
845.50	1077.72
845.82	1077.42
846.13	1078.99
846.45	1080.34
846.76	1082.52
847.08	1080.39
847.40	1082.59
847.71	1082.03
848.03	1080.72
848.34	1080.93
848.66	1078.33
848.97	1078.05
849.29	1079.64
849.60	1078.40
849.92	1077.61
850.24	1078.61
850.55	1073.91
850.87	1074.03
851.18	1077.11
851.50	1073.95
851.81	1078.75
852.13	1084.00
852.44	1084.25
852.76	1085.40
853.07	1088.09
853.39	1083.71
853.70	1081.66
854.01	1076.46
854.33	1075.34
854.64	1076.93
854.96	1077.21
855.27	1076.34
855.59	1083.69
855.90	1081.89
856.22	1077.28
856.53	1076.04
856.84	1076.30
857.16	1074.10
857.47	1073.09
857.79	1075.03
858.10	1077.40
858.41	1075.38
858.73	1073.60
859.04	1076.18
859.36	1075.87
859.67	1073.04
859.98	1073.49
860.30	1074.03
860.61	1073.42
860.92	1074.47
861.24	1074.19
861.55	1076.30
861.87	1078.78
862.18	1076.04
862.49	1077.00
862.81	1080.88
863.12	1078.10
863.43	1076.13
863.74	1078.45
864.06	1077.23
864.37	1077.04
864.68	1078.03
865.00	1079.06
865.31	1080.37
865.62	1079.10
865.94	1079.71
866.25	1080.56
866.56	1075.15
866.87	1071.19
867.19	1071.61
867.50	1070.91
867.81	1072.22
868.12	1074.84
868.44	1072.36
868.75	1075.24
869.06	1075.59
869.37	1079.50
869.68	1083.25
870.00	1088.30
870.31	1086.59
870.62	1089.89
870.93	1085.03
871.24	1078.14
871.56	1076.65
871.87	1077.89
872.18	1071.29
872.49	1074.03
872.80	1075.50
873.12	1076.76
873.43	1077.18
873.74	1078.14
874.05	1075.64
874.36	1077.02
874.67	1076.27
874.98	1078.71
875.29	1077.75
875.61	1079.13
875.92	1080.84
876.23	1083.81
876.54	1078.57
876.85	1081.61
877.16	1079.48
877.47	1076.41
877.78	1074.10
878.09	1076.11
878.40	1076.23
878.72	1078.61
879.03	1081.37
879.34	1082.10
879.65	1078.40
879.96	1076.90
880.27	1074.45
880.58	1075.80
880.89	1072.81
881.20	1074.73
881.51	1078.73
881.82	1081.54
882.13	1078.71
882.44	1080.58
882.75	1076.51
883.06	1073.18
883.37	1070.51
883.68	1072.81
883.99	1070.42
884.30	1075.55
884.61	1077.42
884.92	1079.15
885.23	1076.69
885.54	1079.38
885.85	1078.59
886.16	1076.01
886.47	1074.56
886.78	1075.24
887.08	1075.64
887.39	1077.47
887.70	1078.31
888.01	1078.45
888.32	1078.80
888.63	1077.89
888.94	1077.58
889.25	1078.21
889.56	1078.61
889.87	1079.24
890.17	1078.59
890.48	1077.63
890.79	1077.44
891.10	1076.34
891.41	1076.41
891.72	1077.49
892.03	1075.76
892.34	1075.73
892.64	1078.71
892.95	1079.83
893.26	1080.41
893.57	1081.89
893.88	1082.64
894.18	1080.06
894.49	1080.79
894.80	1080.93
895.11	1081.14
895.42	1078.64
895.72	1080.44
896.03	1078.59
896.34	1078.80
896.65	1077.96
896.96	1078.12
897.26	1077.44
897.57	1078.89
897.88	1078.71
898.19	1078.12
898.49	1078.36
898.80	1078.07
899.11	1077.16
899.41	1075.34
899.72	1078.12
900.03	1079.85
900.34	1078.78
900.64	1078.87
900.95	1080.09
901.26	1077.75
901.56	1076.06
901.87	1079.43
902.18	1079.29
902.48	1078.52
902.79	1079.27
903.10	1077.14
903.40	1073.86
903.71	1070.80
904.02	1072.22
904.32	1071.97
904.63	1074.80
904.94	1075.38
905.24	1074.45
905.55	1075.13
905.85	1074.07
906.16	1073.63
906.47	1074.03
906.77	1078.17
907.08	1077.04
907.38	1077.91
907.69	1077.49
908.00	1079.01
908.30	1078.10
908.61	1077.37
908.91	1080.39
909.22	1083.69
909.52	1081.82
909.83	1080.77
910.14	1080.44
910.44	1075.31
910.75	1070.47
911.05	1071.15
911.36	1071.01
911.66	1073.04
911.97	1071.78
912.27	1072.15
912.58	1071.22
912.88	1068.22
913.19	1067.12
913.49	1071.75
913.80	1072.90
914.10	1074.66
914.41	1076.65
914.71	1079.43
915.01	1081.66
915.32	1082.19
915.62	1081.73
915.93	1083.27
916.23	1079.67
916.54	1076.58
916.84	1076.25
917.15	1076.15
917.45	1079.10
917.75	1079.43
918.06	1079.53
918.36	1079.22
918.67	1076.51
918.97	1073.51
919.27	1073.65
919.58	1071.52
919.88	1072.20
920.18	1073.63
920.49	1075.05
920.79	1075.66
921.10	1076.20
921.40	1074.91
921.70	1076.93
922.01	1076.34
922.31	1075.38
922.61	1075.87
922.92	1077.56
923.22	1074.87
923.52	1075.22
923.82	1073.74
924.13	1074.47
924.43	1074.07
924.73	1074.91
925.04	1075.97
925.34	1079.29
925.64	1077.70
925.94	1076.11
926.25	1074.96
926.55	1073.51
926.85	1073.23
927.15	1073.95
927.46	1072.76
927.76	1076.51
928.06	1075.34
928.36	1074.87
928.67	1077.35
928.97	1080.44
929.27	1080.23
929.57	1081.94
929.87	1083.06
930.18	1082.59
930.48	1081.05
930.78	1077.58
931.08	1077.68
931.38	1074.49
931.69	1072.92
931.99	1075.10
932.29	1076.65
932.59	1075.64
932.89	1078.89
933.19	1078.45
933.49	1078.36
933.80	1079.27
934.10	1080.27
934.40	1079.43
934.70	1079.15
935.00	1077.07
935.30	1075.76
935.60	1076.46
935.90	1076.60
936.20	1077.70
936.50	1078.85
936.81	1078.61
937.11	1076.51
937.41	1077.86
937.71	1079.10
938.01	1077.47
938.31	1080.48
938.61	1079.69
938.91	1077.86
939.21	1073.14
939.51	1075.78
939.81	1073.91
940.11	1074.54
940.41	1074.12
940.71	1075.83
941.01	1074.03
941.31	1074.24
941.61	1076.67
941.91	1076.15
942.21	1076.01
942.51	1076.51
942.81	1073.49
943.11	1073.93
943.41	1072.71
943.71	1076.60
944.01	1076.58
944.31	1076.62
944.61	1073.25
944.90	1073.58
945.20	1071.73
945.50	1073.09
945.80	1076.39
946.10	1079.17
946.40	1079.81
946.70	1081.68
947.00	1079.78
947.30	1078.26
947.60	1074.31
947.89	1074.47
948.19	1071.59
948.49	1069.79
948.79	1070.12
949.09	1071.99
949.39	1073.42
949.69	1075.36
949.98	1078.85
950.28	1079.90
950.58	1079.38
950.88	1077.86
951.18	1079.62
951.48	1080.53
951.77	1082.54
952.07	1087.55
952.37	1088.72
952.67	1087.55
952.97	1086.69
953.26	1082.80
953.56	1078.17
953.86	1077.14
954.16	1078.28
954.45	1079.10
954.75	1081.77
955.05	1082.40
955.35	1083.76
955.64	1082.94
955.94	1081.89
956.24	1080.09
956.54	1080.65
956.83	1079.20
957.13	1075.90
957.43	1075.43
957.72	1076.20
958.02	1074.00
958.32	1073.09
958.61	1073.49
958.91	1071.31
959.21	1072.69
959.50	1072.92
959.80	1072.57
960.10	1073.88
960.39	1073.23
960.69	1072.04
960.99	1075.05
961.28	1076.44
961.58	1073.79
961.87	1078.43
962.17	1075.62
962.47	1075.13
962.76	1072.74
963.06	1075.57
963.36	1074.96
963.65	1076.65
963.95	1074.77
964.24	1077.72
964.54	1078.73
964.83	1078.12
965.13	1077.49
965.42	1077.04
965.72	1075.62
966.02	1073.44
966.31	1071.15
966.61	1070.40
966.90	1071.47
967.20	1076.06
967.49	1076.20
967.79	1078.68
968.08	1083.69
968.38	1084.16
968.67	1082.05
968.97	1083.15
969.26	1081.47
969.56	1080.48
969.85	1080.58
970.15	1079.90
970.44	1077.40
970.74	1078.40
971.03	1078.03
971.32	1077.35
971.62	1077.04
971.91	1079.36
972.21	1079.67
972.50	1079.88
972.80	1082.45
973.09	1080.53
973.38	1079.74
973.68	1081.05
973.97	1078.05
974.27	1076.13
974.56	1077.40
974.85	1077.23
975.15	1076.76
975.44	1076.48
975.73	1075.64
976.03	1075.45
976.32	1076.88
976.61	1075.69
976.91	1075.64
977.20	1078.96
977.49	1081.40
977.79	1080.88
978.08	1081.73
978.37	1081.80
978.67	1080.18
978.96	1079.62
979.25	1080.18
979.55	1076.20
979.84	1078.73
980.13	1080.48
980.42	1080.88
980.72	1079.48
981.01	1083.43
981.30	1085.21
981.59	1079.81
981.89	1078.89
982.18	1079.85
982.47	1078.05
982.76	1078.26
983.06	1080.74
983.35	1080.65
983.64	1079.03
983.93	1077.23
984.22	1075.80
984.52	1075.41
984.81	1073.81
985.10	1075.45
985.39	1078.52
985.68	1076.58
985.97	1077.04
986.27	1077.79
986.56	1076.53
986.85	1075.08
987.14	1073.70
987.43	1071.78
987.72	1072.36
988.01	1074.24
988.31	1078.52
988.60	1077.44
988.89	1078.07
989.18	1077.82
989.47	1075.71
989.76	1071.71
990.05	1072.55
990.34	1075.10
990.63	1073.88
990.92	1073.88
991.21	1071.50
991.51	1072.43
991.80	1070.68
992.09	1072.97
992.38	1075.69
992.67	1078.14
992.96	1079.38
993.25	1079.97
993.54	1078.36
993.83	1073.60
994.12	1075.17
994.41	1076.08
994.70	1076.11
994.99	1078.89
995.28	1083.48
995.57	1084.63
995.86	1085.75
996.15	1082.80
996.44	1080.16
996.73	1079.36
997.02	1077.91
997.31	1077.54
997.59	1082.17
997.88	1081.70
998.17	1078.66
998.46	1078.38
998.75	1075.57
999.04	1074.89
999.33	1074.19
999.62	1076.34
999.91	1074.98
1000.20	1074.26
1000.49	1074.10
1000.77	1074.91
1001.06	1073.81
1001.35	1074.33
1001.64	1076.65
1001.93	1073.91
1002.22	1072.71
1002.51	1072.76
1002.79	1072.06
1003.08	1072.01
1003.37	1073.21
1003.66	1073.86
1003.95	1076.15
1004.23	1076.79
1004.52	1078.38
1004.81	1079.13
1005.10	1079.13
1005.39	1079.27
1005.67	1082.94
1005.96	1080.37
1006.25	1080.79
1006.54	1080.34
1006.83	1080.44
1007.11	1076.74
1007.40	1076.23
1007.69	1076.93
1007.97	1079.03
1008.26	1079.48
1008.55	1080.65
1008.84	1082.50
1009.12	1080.16
1009.41	1079.20
1009.70	1076.90
1009.98	1073.39
1010.27	1068.83
1010.56	1068.27
1010.85	1068.01
1011.13	1069.09
1011.42	1073.18
1011.71	1075.43
1011.99	1075.59
1012.28	1075.34
1012.56	1076.04
1012.85	1073.49
1013.14	1075.15
1013.42	1077.44
1013.71	1076.76
1014.00	1077.54
1014.28	1077.63
1014.57	1076.86
1014.85	1074.94
1015.14	1077.86
1015.43	1076.11
1015.71	1077.58
1016.00	1079.67
1016.28	1080.67
1016.57	1080.88
1016.85	1082.66
1017.14	1083.86
1017.43	1084.72
1017.71	1085.61
1018.00	1081.37
1018.28	1080.39
1018.57	1079.08
1018.85	1074.84
1019.14	1077.14
1019.42	1078.82
1019.71	1077.56
1019.99	1076.83
1020.28	1078.92
1020.56	1071.87
1020.85	1071.24
1021.13	1069.20
1021.42	1069.58
1021.70	1069.95
1021.99	1071.75
1022.27	1072.64
1022.55	1067.40
1022.84	1073.37
>>>>>End Processed Spectral Data<<<<<
