SpectraSuite Data File
++++++++++++++++++++++++++++++++++++
Date: Mon Aug 26 10:21:51 PDT 2019
User: corrico
Dark Spectrum Present: No
Reference Spectrum Present: No
Number of Sampled Component Spectra: 1
Spectrometers: USB2+H06089
Integration Time (usec): 2000 (USB2+H06089)
Spectra Averaged: 20 (USB2+H06089)
Boxcar Smoothing: 2 (USB2+H06089)
Correct for Electrical Dark: No (USB2+H06089)
Strobe/Lamp Enabled: No (USB2+H06089)
Correct for Detector Non-linearity: No (USB2+H06089)
Correct for Stray Light: No (USB2+H06089)
Number of Pixels in Processed Spectrum: 2048
>>>>>Begin Processed Spectral Data<<<<<
339.70	1033.11
340.07	1033.11
340.45	998.29
340.82	973.99
341.19	949.63
341.57	919.62
341.94	909.34
342.31	900.97
342.69	895.30
343.06	891.00
343.43	894.34
343.81	891.42
344.18	890.83
344.55	895.23
344.93	900.83
345.30	906.21
345.67	915.57
346.04	926.69
346.42	936.21
346.79	946.93
347.16	953.96
347.54	961.26
347.91	970.97
348.28	981.43
348.65	989.34
349.03	1000.93
349.40	1010.57
349.77	1016.85
350.14	1020.75
350.52	1027.68
350.89	1031.59
351.26	1035.78
351.63	1044.00
352.01	1050.85
352.38	1053.24
352.75	1059.58
353.12	1062.93
353.50	1066.58
353.87	1068.69
354.24	1072.90
354.61	1072.85
354.98	1074.66
355.36	1075.13
355.73	1076.32
356.10	1074.10
356.47	1075.55
356.84	1078.75
357.22	1078.07
357.59	1078.80
357.96	1080.88
358.33	1080.98
358.70	1080.11
359.08	1080.67
359.45	1079.69
359.82	1077.00
360.19	1078.03
360.56	1079.43
360.94	1076.62
361.31	1073.95
361.68	1080.53
362.05	1079.15
362.42	1075.83
362.79	1076.86
363.16	1078.45
363.54	1072.97
363.91	1071.12
364.28	1072.34
364.65	1069.51
365.02	1068.06
365.39	1067.54
365.76	1065.11
366.14	1061.92
366.51	1062.60
366.88	1065.11
367.25	1066.37
367.62	1069.60
367.99	1068.38
368.36	1068.69
368.73	1068.97
369.10	1070.00
369.48	1068.06
369.85	1069.09
370.22	1068.67
370.59	1064.97
370.96	1064.48
371.33	1066.93
371.70	1069.27
372.07	1069.32
372.44	1074.45
372.81	1072.67
373.18	1070.94
373.55	1069.72
373.93	1070.44
374.30	1066.61
374.67	1068.62
375.04	1068.78
375.41	1068.31
375.78	1070.61
376.15	1070.63
376.52	1070.37
376.89	1073.67
377.26	1075.83
377.63	1074.94
378.00	1075.66
378.37	1073.04
378.74	1072.18
379.11	1072.50
379.48	1073.07
379.85	1072.71
380.22	1074.91
380.59	1074.68
380.96	1071.87
381.33	1071.68
381.70	1072.41
382.07	1071.40
382.44	1068.67
382.81	1069.91
383.18	1069.81
383.55	1069.79
383.92	1071.01
384.29	1071.97
384.66	1071.01
385.03	1071.24
385.40	1071.68
385.77	1072.39
386.14	1073.23
386.51	1076.41
386.88	1076.41
387.25	1077.18
387.62	1072.57
387.99	1073.37
388.36	1072.55
388.73	1071.99
389.10	1070.82
389.46	1073.37
389.83	1071.97
390.20	1071.94
390.57	1069.81
390.94	1070.12
391.31	1072.43
391.68	1072.97
392.05	1074.24
392.42	1078.59
392.79	1080.65
393.16	1078.66
393.53	1078.05
393.89	1076.34
394.26	1070.09
394.63	1066.75
395.00	1069.09
395.37	1070.63
395.74	1072.29
396.11	1077.18
396.48	1079.62
396.84	1079.29
397.21	1077.96
397.58	1076.88
397.95	1075.59
398.32	1074.84
398.69	1071.92
399.06	1073.65
399.42	1074.70
399.79	1073.98
400.16	1075.27
400.53	1079.62
400.90	1082.22
401.27	1081.80
401.64	1083.04
402.00	1081.05
402.37	1078.38
402.74	1075.01
403.11	1074.14
403.48	1074.75
403.84	1079.83
404.21	1081.05
404.58	1083.08
404.95	1085.99
405.32	1086.66
405.68	1079.64
406.05	1080.13
406.42	1080.16
406.79	1079.10
407.16	1081.12
407.52	1085.07
407.89	1085.31
408.26	1084.79
408.63	1083.08
408.99	1082.12
409.36	1083.81
409.73	1081.94
410.10	1085.00
410.47	1086.76
410.83	1087.11
411.20	1087.09
411.57	1091.25
411.94	1087.55
412.30	1088.63
412.67	1088.51
413.04	1090.39
413.40	1090.60
413.77	1095.60
414.14	1096.73
414.51	1096.56
414.87	1094.34
415.24	1090.41
415.61	1087.65
415.97	1088.14
416.34	1089.61
416.71	1090.90
417.08	1094.34
417.44	1094.86
417.81	1091.79
418.18	1090.01
418.54	1090.36
418.91	1089.03
419.28	1088.79
419.64	1092.05
420.01	1092.05
420.38	1091.93
420.74	1094.69
421.11	1095.18
421.48	1096.00
421.84	1099.07
422.21	1099.44
422.58	1099.37
422.94	1097.99
423.31	1099.30
423.68	1101.20
424.04	1103.52
424.41	1105.29
424.77	1109.58
425.14	1109.81
425.51	1112.46
425.87	1116.25
426.24	1119.60
426.61	1125.63
426.97	1130.81
427.34	1135.16
427.70	1137.71
428.07	1141.95
428.44	1145.15
428.80	1146.96
429.17	1150.79
429.53	1156.51
429.90	1161.61
430.27	1166.15
430.63	1172.80
431.00	1176.17
431.36	1181.55
431.73	1187.52
432.09	1194.96
432.46	1202.80
432.83	1211.79
433.19	1221.43
433.56	1233.44
433.92	1244.51
434.29	1255.18
434.65	1271.31
435.02	1284.25
435.38	1298.69
435.75	1314.16
436.11	1332.79
436.48	1346.84
436.84	1368.04
437.21	1387.98
437.57	1410.92
437.94	1436.50
438.30	1464.43
438.67	1491.18
439.03	1521.40
439.40	1553.39
439.76	1581.41
440.13	1611.46
440.49	1649.07
440.86	1685.49
441.22	1723.94
441.59	1769.12
441.95	1814.03
442.32	1857.05
442.68	1906.55
443.05	1958.98
443.41	2017.17
443.78	2081.23
444.14	2150.23
444.51	2213.05
444.87	2292.72
445.24	2362.98
445.60	2442.79
445.96	2525.58
446.33	2630.50
446.69	2717.99
447.06	2827.74
447.42	2936.65
447.79	3041.53
448.15	3152.70
448.51	3274.53
448.88	3413.60
449.24	3544.98
449.61	3700.41
449.97	3861.04
450.33	4030.99
450.70	4188.58
451.06	4383.61
451.43	4574.34
451.79	4805.45
452.15	5057.69
452.52	5317.84
452.88	5582.83
453.24	5870.30
453.61	6160.88
453.97	6459.76
454.34	6751.30
454.70	7083.05
455.06	7415.64
455.43	7749.98
455.79	8069.14
456.15	8447.86
456.52	8812.40
456.88	9242.78
457.24	9655.88
457.61	10130.49
457.97	10610.02
458.33	11083.56
458.70	11544.06
459.06	11988.93
459.42	12495.58
459.79	12948.05
460.15	13474.14
460.51	13952.52
460.88	14504.32
461.24	14999.21
461.60	15554.47
461.96	16055.19
462.33	16576.59
462.69	17031.42
463.05	17507.07
463.42	17974.64
463.78	18350.41
464.14	18690.89
464.50	19114.20
464.87	19390.07
465.23	19587.71
465.59	19863.73
465.95	20085.75
466.32	20212.40
466.68	20357.35
467.04	20390.23
467.40	20426.44
467.77	20482.80
468.13	20467.56
468.49	20446.08
468.85	20459.91
469.22	20368.35
469.58	20160.93
469.94	19998.40
470.30	19772.85
470.66	19565.80
471.03	19343.50
471.39	19221.09
471.75	18996.75
472.11	18773.91
472.47	18566.56
472.84	18313.71
473.20	17936.34
473.56	17640.20
473.92	17259.93
474.28	16884.55
474.65	16523.88
475.01	16251.98
475.37	15908.27
475.73	15669.96
476.09	15395.29
476.45	15118.71
476.81	14805.48
477.18	14509.61
477.54	14206.61
477.90	13940.21
478.26	13653.40
478.62	13420.66
478.98	13242.24
479.34	13103.00
479.71	12934.08
480.07	12799.10
480.43	12653.78
480.79	12461.97
481.15	12253.24
481.51	12024.99
481.87	11833.44
482.23	11618.65
482.59	11418.61
482.96	11213.37
483.32	11048.55
483.68	10861.28
484.04	10710.69
484.40	10574.80
484.76	10421.63
485.12	10244.76
485.48	10086.23
485.84	9884.95
486.20	9660.37
486.56	9444.30
486.92	9265.81
487.28	9068.01
487.64	8881.72
488.00	8706.21
488.37	8546.28
488.73	8358.38
489.09	8163.51
489.45	7959.79
489.81	7748.67
490.17	7535.05
490.53	7338.80
490.89	7144.44
491.25	6979.62
491.61	6822.29
491.97	6666.41
492.33	6506.27
492.69	6352.54
493.05	6194.34
493.41	6036.71
493.77	5878.51
494.13	5724.69
494.49	5587.44
494.85	5461.78
495.21	5334.15
495.57	5200.65
495.93	5073.63
496.29	4934.41
496.64	4798.43
497.00	4668.10
497.36	4543.45
497.72	4423.26
498.08	4321.42
498.44	4223.05
498.80	4127.79
499.16	4042.60
499.52	3965.01
499.88	3893.67
500.24	3822.17
500.60	3750.90
500.96	3678.46
501.32	3599.04
501.68	3514.90
502.03	3434.83
502.39	3362.95
502.75	3294.05
503.11	3229.42
503.47	3167.19
503.83	3101.96
504.19	3034.22
504.55	2970.07
504.91	2901.09
505.26	2837.95
505.62	2773.04
505.98	2721.01
506.34	2670.53
506.70	2625.36
507.06	2581.33
507.42	2537.94
507.78	2492.18
508.13	2448.11
508.49	2412.44
508.85	2370.19
509.21	2337.21
509.57	2298.97
509.93	2261.00
510.28	2214.24
510.64	2173.23
511.00	2129.04
511.36	2085.53
511.72	2051.81
512.07	2020.82
512.43	1986.51
512.79	1959.82
513.15	1934.94
513.51	1903.07
513.86	1872.17
514.22	1847.74
514.58	1817.17
514.94	1797.84
515.30	1775.74
515.65	1755.21
516.01	1736.91
516.37	1716.34
516.73	1692.56
517.08	1673.37
517.44	1649.70
517.80	1627.68
518.16	1612.35
518.51	1591.31
518.87	1574.78
519.23	1565.07
519.59	1548.50
519.94	1533.80
520.30	1523.48
520.66	1508.87
521.01	1494.67
521.37	1485.42
521.73	1473.81
522.09	1463.07
522.44	1455.04
522.80	1445.19
523.16	1435.59
523.51	1426.42
523.87	1413.99
524.23	1402.61
524.58	1391.87
524.94	1382.09
525.30	1371.60
525.65	1361.86
526.01	1351.57
526.37	1341.90
526.72	1333.36
527.08	1325.73
527.44	1318.00
527.79	1313.84
528.15	1306.11
528.51	1299.30
528.86	1290.59
529.22	1286.26
529.58	1278.52
529.93	1270.16
530.29	1263.35
530.65	1259.51
531.00	1252.09
531.36	1246.05
531.71	1246.50
532.07	1242.68
532.43	1240.58
532.78	1236.29
533.14	1229.86
533.49	1223.70
533.85	1216.96
534.21	1208.98
534.56	1209.87
534.92	1209.14
535.27	1204.35
535.63	1202.59
535.98	1203.39
536.34	1195.64
536.69	1191.59
537.05	1189.62
537.41	1185.93
537.76	1178.97
538.12	1174.67
538.47	1168.56
538.83	1164.07
539.18	1163.95
539.54	1157.70
539.89	1158.52
540.25	1156.46
540.60	1157.37
540.96	1153.35
541.31	1157.58
541.67	1154.82
542.02	1156.72
542.38	1154.61
542.73	1152.25
543.09	1147.54
543.44	1148.69
543.80	1145.04
544.15	1139.61
544.51	1140.45
544.86	1141.50
545.22	1139.30
545.57	1140.05
545.93	1142.58
546.28	1140.15
546.64	1137.29
546.99	1130.50
547.35	1126.71
547.70	1125.98
548.05	1123.71
548.41	1125.05
548.76	1125.96
549.12	1124.63
549.47	1122.90
549.83	1125.35
550.18	1123.25
550.53	1122.68
550.89	1123.62
551.24	1123.13
551.60	1120.63
551.95	1118.80
552.30	1116.62
552.66	1115.41
553.01	1111.92
553.37	1108.45
553.72	1110.37
554.07	1109.65
554.43	1108.10
554.78	1108.78
555.13	1110.07
555.49	1106.61
555.84	1108.66
556.19	1107.73
556.55	1104.05
556.90	1099.23
557.26	1096.38
557.61	1093.64
557.96	1093.08
558.32	1092.33
558.67	1092.59
559.02	1093.24
559.37	1095.79
559.73	1093.85
560.08	1097.01
560.43	1099.58
560.79	1100.45
561.14	1100.59
561.49	1098.48
561.85	1097.15
562.20	1096.99
562.55	1093.85
562.90	1093.17
563.26	1096.00
563.61	1096.75
563.96	1093.50
564.32	1096.35
564.67	1092.96
565.02	1094.57
565.37	1093.71
565.73	1094.18
566.08	1094.90
566.43	1095.89
566.78	1096.40
567.14	1092.49
567.49	1094.13
567.84	1092.82
568.19	1094.34
568.54	1091.20
568.90	1094.36
569.25	1095.63
569.60	1095.35
569.95	1088.61
570.31	1088.35
570.66	1086.38
571.01	1083.48
571.36	1084.60
571.71	1088.86
572.06	1086.90
572.42	1087.95
572.77	1091.11
573.12	1089.59
573.47	1092.45
573.82	1095.02
574.18	1094.69
574.53	1090.10
574.88	1083.69
575.23	1078.85
575.58	1080.04
575.93	1082.19
576.28	1082.83
576.64	1085.70
576.99	1086.62
577.34	1083.22
577.69	1081.21
578.04	1083.67
578.39	1085.84
578.74	1085.10
579.09	1087.88
579.44	1086.31
579.80	1085.26
580.15	1086.90
580.50	1088.75
580.85	1085.45
581.20	1086.10
581.55	1084.42
581.90	1080.98
582.25	1076.41
582.60	1081.02
582.95	1084.81
583.30	1083.06
583.65	1085.26
584.00	1088.54
584.35	1085.91
584.71	1082.45
585.06	1085.96
585.41	1087.09
585.76	1084.77
586.11	1083.36
586.46	1082.54
586.81	1081.44
587.16	1079.34
587.51	1081.21
587.86	1078.78
588.21	1081.44
588.56	1083.76
588.91	1083.62
589.26	1083.93
589.61	1092.68
589.96	1090.67
590.31	1089.17
590.66	1088.65
591.01	1086.83
591.36	1077.70
591.71	1079.17
592.06	1078.21
592.41	1080.30
592.76	1081.63
593.10	1085.12
593.45	1084.32
593.80	1084.25
594.15	1083.74
594.50	1081.70
594.85	1083.11
595.20	1083.13
595.55	1083.32
595.90	1080.46
596.25	1081.35
596.60	1081.19
596.95	1081.75
597.30	1082.87
597.64	1095.21
597.99	1099.91
598.34	1099.42
598.69	1097.92
599.04	1098.51
599.39	1089.40
599.74	1087.13
600.09	1084.11
600.44	1085.05
600.78	1084.46
601.13	1083.36
601.48	1080.56
601.83	1085.10
602.18	1083.81
602.53	1081.87
602.88	1082.05
603.22	1085.59
603.57	1082.31
603.92	1083.11
604.27	1083.79
604.62	1081.47
604.97	1081.35
605.31	1082.64
605.66	1082.64
606.01	1081.61
606.36	1080.34
606.71	1079.83
607.05	1081.12
607.40	1080.60
607.75	1082.19
608.10	1085.00
608.44	1085.96
608.79	1082.90
609.14	1081.66
609.49	1079.69
609.84	1079.99
610.18	1076.04
610.53	1075.69
610.88	1078.38
611.23	1079.95
611.57	1080.18
611.92	1081.68
612.27	1081.47
612.62	1077.47
612.96	1078.68
613.31	1077.84
613.66	1075.69
614.00	1079.71
614.35	1085.68
614.70	1086.34
615.05	1088.23
615.39	1092.16
615.74	1091.79
616.09	1084.93
616.43	1081.68
616.78	1079.60
617.13	1077.07
617.47	1077.84
617.82	1081.96
618.17	1084.30
618.51	1082.94
618.86	1084.09
619.21	1078.71
619.55	1075.27
619.90	1074.70
620.25	1074.24
620.59	1074.49
620.94	1076.37
621.29	1078.89
621.63	1079.50
621.98	1083.48
622.32	1081.84
622.67	1082.17
623.02	1083.39
623.36	1081.84
623.71	1078.96
624.05	1080.23
624.40	1079.92
624.75	1080.39
625.09	1081.54
625.44	1080.06
625.78	1080.72
626.13	1080.74
626.48	1082.10
626.82	1080.34
627.17	1080.67
627.51	1080.63
627.86	1079.36
628.20	1076.90
628.55	1075.57
628.89	1076.37
629.24	1073.93
629.58	1074.98
629.93	1076.01
630.28	1079.78
630.62	1081.42
630.97	1082.71
631.31	1083.08
631.66	1081.89
632.00	1081.47
632.35	1081.07
632.69	1084.44
633.04	1087.76
633.38	1089.07
633.73	1086.99
634.07	1087.62
634.42	1083.32
634.76	1078.50
635.11	1077.11
635.45	1077.79
635.79	1077.04
636.14	1077.51
636.48	1080.88
636.83	1078.43
637.17	1077.14
637.52	1073.32
637.86	1072.81
638.21	1068.64
638.55	1069.06
638.89	1070.35
639.24	1074.03
639.58	1078.80
639.93	1083.13
640.27	1084.37
640.61	1081.28
640.96	1078.89
641.30	1076.39
641.65	1074.10
641.99	1074.80
642.33	1078.19
642.68	1078.12
643.02	1075.73
643.37	1075.36
643.71	1074.47
644.05	1074.68
644.40	1076.90
644.74	1075.73
645.08	1075.80
645.43	1074.05
645.77	1073.21
646.11	1069.98
646.46	1072.78
646.80	1074.10
647.14	1074.98
647.49	1075.10
647.83	1077.51
648.17	1077.25
648.52	1078.10
648.86	1079.99
649.20	1081.28
649.55	1084.35
649.89	1081.54
650.23	1079.57
650.57	1078.78
650.92	1077.70
651.26	1073.88
651.60	1076.46
651.95	1077.07
652.29	1077.82
652.63	1080.88
652.97	1081.70
653.32	1081.68
653.66	1083.64
654.00	1082.69
654.34	1078.82
654.69	1078.64
655.03	1078.52
655.37	1078.96
655.71	1082.10
656.05	1079.48
656.40	1081.68
656.74	1082.90
657.08	1081.33
657.42	1079.27
657.76	1081.68
658.11	1084.56
658.45	1084.18
658.79	1082.87
659.13	1081.94
659.47	1083.86
659.82	1080.60
660.16	1084.63
660.50	1085.66
660.84	1086.83
661.18	1084.67
661.52	1084.58
661.87	1078.36
662.21	1076.86
662.55	1077.07
662.89	1078.03
663.23	1079.60
663.57	1082.12
663.91	1084.30
664.25	1082.15
664.60	1079.69
664.94	1076.65
665.28	1075.78
665.62	1073.44
665.96	1073.86
666.30	1075.38
666.64	1075.64
666.98	1077.07
667.32	1081.63
667.66	1082.47
668.01	1084.65
668.35	1082.45
668.69	1080.58
669.03	1079.17
669.37	1077.44
669.71	1076.08
670.05	1080.23
670.39	1080.04
670.73	1081.21
671.07	1081.37
671.41	1081.89
671.75	1081.77
672.09	1081.61
672.43	1075.94
672.77	1075.69
673.11	1075.27
673.45	1074.63
673.79	1076.25
674.13	1079.78
674.47	1082.57
674.81	1084.72
675.15	1084.86
675.49	1083.90
675.83	1083.50
676.17	1081.91
676.51	1077.30
676.85	1077.42
677.19	1076.39
677.53	1076.04
677.87	1075.83
678.21	1077.00
678.55	1073.23
678.89	1072.55
679.23	1070.44
679.57	1069.06
679.90	1068.88
680.24	1071.43
680.58	1072.60
680.92	1073.67
681.26	1075.50
681.60	1075.34
681.94	1074.17
682.28	1072.95
682.62	1072.22
682.96	1071.47
683.29	1072.76
683.63	1071.66
683.97	1072.57
684.31	1073.58
684.65	1076.20
684.99	1076.30
685.33	1076.81
685.67	1076.53
686.00	1075.29
686.34	1074.33
686.68	1076.88
687.02	1077.96
687.36	1078.52
687.70	1081.33
688.03	1081.96
688.37	1078.82
688.71	1077.63
689.05	1079.15
689.39	1077.44
689.72	1076.60
690.06	1074.68
690.40	1075.85
690.74	1074.59
691.08	1074.07
691.41	1073.93
691.75	1075.55
692.09	1078.24
692.43	1079.74
692.76	1081.56
693.10	1079.10
693.44	1082.15
693.78	1079.99
694.11	1078.57
694.45	1078.00
694.79	1081.26
695.13	1077.68
695.46	1076.83
695.80	1076.11
696.14	1076.90
696.48	1075.59
696.81	1076.20
697.15	1077.54
697.49	1077.91
697.82	1076.46
698.16	1074.68
698.50	1077.58
698.83	1078.36
699.17	1080.16
699.51	1079.22
699.84	1080.25
700.18	1078.45
700.52	1076.74
700.85	1074.66
701.19	1078.12
701.53	1075.87
701.86	1074.91
702.20	1075.34
702.54	1073.84
702.87	1069.48
703.21	1071.31
703.55	1070.58
703.88	1072.11
704.22	1075.90
704.55	1079.50
704.89	1079.62
705.23	1079.85
705.56	1077.25
705.90	1075.22
706.23	1071.78
706.57	1070.91
706.91	1071.12
707.24	1073.21
707.58	1072.88
707.91	1074.33
708.25	1075.92
708.58	1075.76
708.92	1075.78
709.26	1075.03
709.59	1077.28
709.93	1075.69
710.26	1078.89
710.60	1077.86
710.93	1079.95
711.27	1077.49
711.60	1081.91
711.94	1081.21
712.27	1083.83
712.61	1085.40
712.94	1084.70
713.28	1083.55
713.61	1084.79
713.95	1082.40
714.28	1079.53
714.62	1079.43
714.95	1079.38
715.29	1078.36
715.62	1079.50
715.96	1080.91
716.29	1083.13
716.63	1082.22
716.96	1079.48
717.29	1076.25
717.63	1074.54
717.96	1075.17
718.30	1073.14
718.63	1074.87
718.97	1075.52
719.30	1074.82
719.63	1072.22
719.97	1075.45
720.30	1074.75
720.64	1078.87
720.97	1083.95
721.30	1086.71
721.64	1084.56
721.97	1085.21
722.31	1080.86
722.64	1075.08
722.97	1072.78
723.31	1071.52
723.64	1069.46
723.97	1072.41
724.31	1074.31
724.64	1070.12
724.98	1072.11
725.31	1070.28
725.64	1068.29
725.98	1065.11
726.31	1066.70
726.64	1065.93
726.97	1069.58
727.31	1071.05
727.64	1074.82
727.97	1077.98
728.31	1077.86
728.64	1077.96
728.97	1076.44
729.31	1075.27
729.64	1075.41
729.97	1078.00
730.30	1078.57
730.64	1078.73
730.97	1076.72
731.30	1074.07
731.63	1070.98
731.97	1071.22
732.30	1074.35
732.63	1078.33
732.96	1082.76
733.30	1084.18
733.63	1084.23
733.96	1081.94
734.29	1081.09
734.63	1078.96
734.96	1079.74
735.29	1078.00
735.62	1080.44
735.95	1079.34
736.29	1079.22
736.62	1077.44
736.95	1077.82
737.28	1074.75
737.61	1077.51
737.94	1078.92
738.28	1079.97
738.61	1077.86
738.94	1078.68
739.27	1078.07
739.60	1077.23
739.93	1075.87
740.27	1077.49
740.60	1074.03
740.93	1072.90
741.26	1072.57
741.59	1072.25
741.92	1073.46
742.25	1075.36
742.58	1075.59
742.91	1074.96
743.25	1075.64
743.58	1073.60
743.91	1073.09
744.24	1073.53
744.57	1072.81
744.90	1075.24
745.23	1074.96
745.56	1075.50
745.89	1076.88
746.22	1078.92
746.55	1075.36
746.88	1077.77
747.21	1075.78
747.54	1074.66
747.87	1073.93
748.20	1076.23
748.53	1077.58
748.87	1080.18
749.20	1079.15
749.53	1076.39
749.86	1075.31
750.19	1072.57
750.52	1073.58
750.85	1075.73
751.18	1077.54
751.51	1076.67
751.84	1077.33
752.16	1077.89
752.49	1076.93
752.82	1078.00
753.15	1080.06
753.48	1079.48
753.81	1078.03
754.14	1077.89
754.47	1074.05
754.80	1074.59
755.13	1075.76
755.46	1072.97
755.79	1074.84
756.12	1076.90
756.45	1074.54
756.78	1072.48
757.11	1071.68
757.43	1069.09
757.76	1069.44
758.09	1071.24
758.42	1070.63
758.75	1075.48
759.08	1075.03
759.41	1074.26
759.74	1073.67
760.07	1073.58
760.39	1074.31
760.72	1073.93
761.05	1076.53
761.38	1080.16
761.71	1082.94
762.04	1079.67
762.36	1079.76
762.69	1080.53
763.02	1077.25
763.35	1077.42
763.68	1080.20
764.01	1082.73
764.33	1079.83
764.66	1080.25
764.99	1079.69
765.32	1078.59
765.65	1077.18
765.97	1077.28
766.30	1078.14
766.63	1076.93
766.96	1075.92
767.28	1077.40
767.61	1079.34
767.94	1075.34
768.27	1076.27
768.59	1076.06
768.92	1071.97
769.25	1071.64
769.58	1075.13
769.90	1075.31
770.23	1074.91
770.56	1076.27
770.89	1075.24
771.21	1074.38
771.54	1075.13
771.87	1079.95
772.19	1081.63
772.52	1082.31
772.85	1084.89
773.17	1085.87
773.50	1082.19
773.83	1079.27
774.15	1077.91
774.48	1075.73
774.81	1073.30
775.13	1075.57
775.46	1078.21
775.79	1080.70
776.11	1079.03
776.44	1080.04
776.77	1080.27
777.09	1079.97
777.42	1080.34
777.74	1080.27
778.07	1079.31
778.40	1077.68
778.72	1078.26
779.05	1080.09
779.37	1080.27
779.70	1079.08
780.03	1077.65
780.35	1075.01
780.68	1072.20
781.00	1072.01
781.33	1072.92
781.65	1071.73
781.98	1072.81
782.31	1073.30
782.63	1074.21
782.96	1072.50
783.28	1072.53
783.61	1072.32
783.93	1070.94
784.26	1069.32
784.58	1073.60
784.91	1075.01
785.23	1076.41
785.56	1078.05
785.88	1078.26
786.21	1077.86
786.53	1077.98
786.86	1078.87
787.18	1077.54
787.51	1077.89
787.83	1073.23
788.16	1074.38
788.48	1071.54
788.81	1074.17
789.13	1073.84
789.46	1077.33
789.78	1076.15
790.10	1078.21
790.43	1076.30
790.75	1076.13
791.08	1075.90
791.40	1076.20
791.73	1076.62
792.05	1076.37
792.37	1077.86
792.70	1077.93
793.02	1078.82
793.35	1075.87
793.67	1077.54
793.99	1074.68
794.32	1074.35
794.64	1073.63
794.96	1074.80
795.29	1074.63
795.61	1078.85
795.93	1078.75
796.26	1078.40
796.58	1080.88
796.91	1080.58
797.23	1080.32
797.55	1080.04
797.87	1081.00
798.20	1076.97
798.52	1078.57
798.84	1077.40
799.17	1082.22
799.49	1083.13
799.81	1083.93
800.14	1080.23
800.46	1080.20
800.78	1075.55
801.10	1071.12
801.43	1070.19
801.75	1072.92
802.07	1072.69
802.40	1073.09
802.72	1076.32
803.04	1076.65
803.36	1075.90
803.69	1078.05
804.01	1075.55
804.33	1074.75
804.65	1077.70
804.97	1075.99
805.30	1072.27
805.62	1074.07
805.94	1074.45
806.26	1079.10
806.58	1081.26
806.91	1084.84
807.23	1085.91
807.55	1083.43
807.87	1076.88
808.19	1074.68
808.52	1074.89
808.84	1075.48
809.16	1076.27
809.48	1079.06
809.80	1079.62
810.12	1076.48
810.44	1076.51
810.77	1079.10
811.09	1076.41
811.41	1078.28
811.73	1079.41
812.05	1079.10
812.37	1076.30
812.69	1073.95
813.01	1073.84
813.33	1072.29
813.66	1072.62
813.98	1076.67
814.30	1081.07
814.62	1079.53
814.94	1079.24
815.26	1077.91
815.58	1075.71
815.90	1076.37
816.22	1076.11
816.54	1079.48
816.86	1079.95
817.18	1078.85
817.50	1075.27
817.82	1076.25
818.14	1073.79
818.46	1073.95
818.78	1074.38
819.10	1073.44
819.42	1071.10
819.74	1071.71
820.06	1072.97
820.38	1074.80
820.70	1076.27
821.02	1076.37
821.34	1078.89
821.66	1077.09
821.98	1076.46
822.30	1077.16
822.62	1078.68
822.94	1077.09
823.26	1078.40
823.58	1076.93
823.90	1079.81
824.22	1081.54
824.54	1083.39
824.86	1080.70
825.18	1081.82
825.50	1079.78
825.81	1077.54
826.13	1074.89
826.45	1076.86
826.77	1076.20
827.09	1073.93
827.41	1076.79
827.73	1077.25
828.05	1077.61
828.36	1079.55
828.68	1080.23
829.00	1079.43
829.32	1079.67
829.64	1078.87
829.96	1076.86
830.28	1078.64
830.59	1076.67
830.91	1077.25
831.23	1078.21
831.55	1077.70
831.87	1079.27
832.19	1081.07
832.50	1080.16
832.82	1078.28
833.14	1077.91
833.46	1075.62
833.78	1077.58
834.09	1078.57
834.41	1078.89
834.73	1077.54
835.05	1076.72
835.36	1074.80
835.68	1073.58
836.00	1076.11
836.32	1079.08
836.63	1076.81
836.95	1076.06
837.27	1072.97
837.59	1070.35
837.90	1067.99
838.22	1070.35
838.54	1069.16
838.85	1073.81
839.17	1075.78
839.49	1076.90
839.80	1073.88
840.12	1075.76
840.44	1073.14
840.76	1069.65
841.07	1070.58
841.39	1076.01
841.71	1073.51
842.02	1073.65
842.34	1073.16
842.65	1073.44
842.97	1071.47
843.29	1070.37
843.60	1069.53
843.92	1071.87
844.24	1075.59
844.55	1075.13
844.87	1073.95
845.18	1078.31
845.50	1079.60
845.82	1075.83
846.13	1075.87
846.45	1079.78
846.76	1076.60
847.08	1075.87
847.40	1074.56
847.71	1073.04
848.03	1072.04
848.34	1072.41
848.66	1073.95
848.97	1074.05
849.29	1076.58
849.60	1073.16
849.92	1074.66
850.24	1070.63
850.55	1068.52
850.87	1065.76
851.18	1070.35
851.50	1070.00
851.81	1070.09
852.13	1073.42
852.44	1075.97
852.76	1076.46
853.07	1076.88
853.39	1078.87
853.70	1080.06
854.01	1079.34
854.33	1078.03
854.64	1078.12
854.96	1074.61
855.27	1074.33
855.59	1075.36
855.90	1073.98
856.22	1071.10
856.53	1075.01
856.84	1073.77
857.16	1072.11
857.47	1072.64
857.79	1072.83
858.10	1070.49
858.41	1069.23
858.73	1073.09
859.04	1073.30
859.36	1074.56
859.67	1078.61
859.98	1079.83
860.30	1078.31
860.61	1080.81
860.92	1080.34
861.24	1078.50
861.55	1080.27
861.87	1079.57
862.18	1077.98
862.49	1077.54
862.81	1076.18
863.12	1073.23
863.43	1074.17
863.74	1071.36
864.06	1070.56
864.37	1071.38
864.68	1073.51
865.00	1073.18
865.31	1075.01
865.62	1077.65
865.94	1078.43
866.25	1077.96
866.56	1077.04
866.87	1079.24
867.19	1077.09
867.50	1076.95
867.81	1078.89
868.12	1077.70
868.44	1075.15
868.75	1077.96
869.06	1078.75
869.37	1076.79
869.68	1079.10
870.00	1079.36
870.31	1077.44
870.62	1078.57
870.93	1078.71
871.24	1079.10
871.56	1077.14
871.87	1074.17
872.18	1075.76
872.49	1076.76
872.80	1076.62
873.12	1079.50
873.43	1082.78
873.74	1078.80
874.05	1078.24
874.36	1075.62
874.67	1075.03
874.98	1073.44
875.29	1073.00
875.61	1071.85
875.92	1069.53
876.23	1067.68
876.54	1070.00
876.85	1070.58
877.16	1068.41
877.47	1069.81
877.78	1072.04
878.09	1072.50
878.40	1073.18
878.72	1074.61
879.03	1077.23
879.34	1075.43
879.65	1074.17
879.96	1075.48
880.27	1078.66
880.58	1078.43
880.89	1079.20
881.20	1080.70
881.51	1079.83
881.82	1075.13
882.13	1074.87
882.44	1077.37
882.75	1076.86
883.06	1075.92
883.37	1077.42
883.68	1078.89
883.99	1078.05
884.30	1077.98
884.61	1079.71
884.92	1080.13
885.23	1081.70
885.54	1079.76
885.85	1079.83
886.16	1077.70
886.47	1080.02
886.78	1079.97
887.08	1080.06
887.39	1077.61
887.70	1076.69
888.01	1076.20
888.32	1074.05
888.63	1076.39
888.94	1077.65
889.25	1080.58
889.56	1081.07
889.87	1077.18
890.17	1074.54
890.48	1073.02
890.79	1071.38
891.10	1068.90
891.41	1072.34
891.72	1072.69
892.03	1075.76
892.34	1074.66
892.64	1075.52
892.95	1074.47
893.26	1076.81
893.57	1077.11
893.88	1078.17
894.18	1080.30
894.49	1079.64
894.80	1079.13
895.11	1076.81
895.42	1074.59
895.72	1071.26
896.03	1070.77
896.34	1071.47
896.65	1073.35
896.96	1075.36
897.26	1074.33
897.57	1073.72
897.88	1072.22
898.19	1071.97
898.49	1072.50
898.80	1074.87
899.11	1078.10
899.41	1079.27
899.72	1079.13
900.03	1077.84
900.34	1080.86
900.64	1076.74
900.95	1075.52
901.26	1077.61
901.56	1080.58
901.87	1077.02
902.18	1081.87
902.48	1083.08
902.79	1078.14
903.10	1075.62
903.40	1078.36
903.71	1076.67
904.02	1077.14
904.32	1078.68
904.63	1079.64
904.94	1076.23
905.24	1078.19
905.55	1078.80
905.85	1077.79
906.16	1079.08
906.47	1078.10
906.77	1076.13
907.08	1073.21
907.38	1074.70
907.69	1072.95
908.00	1074.73
908.30	1074.61
908.61	1074.03
908.91	1076.20
909.22	1076.39
909.52	1076.04
909.83	1077.30
910.14	1079.13
910.44	1077.51
910.75	1077.09
911.05	1076.79
911.36	1075.29
911.66	1074.24
911.97	1071.40
912.27	1071.68
912.58	1073.44
912.88	1073.46
913.19	1074.07
913.49	1075.69
913.80	1076.58
914.10	1074.56
914.41	1074.77
914.71	1073.37
915.01	1074.54
915.32	1071.80
915.62	1073.56
915.93	1073.70
916.23	1076.13
916.54	1074.73
916.84	1079.06
917.15	1075.64
917.45	1074.14
917.75	1071.71
918.06	1071.50
918.36	1069.46
918.67	1073.53
918.97	1074.24
919.27	1077.77
919.58	1080.46
919.88	1078.54
920.18	1078.33
920.49	1078.92
920.79	1076.88
921.10	1074.05
921.40	1075.64
921.70	1076.58
922.01	1077.18
922.31	1073.63
922.61	1076.23
922.92	1075.73
923.22	1072.83
923.52	1071.80
923.82	1075.76
924.13	1072.95
924.43	1071.10
924.73	1069.55
925.04	1068.36
925.34	1063.96
925.64	1065.76
925.94	1066.49
926.25	1067.89
926.55	1067.82
926.85	1073.44
927.15	1070.89
927.46	1071.92
927.76	1072.41
928.06	1072.15
928.36	1071.45
928.67	1069.93
928.97	1070.87
929.27	1068.71
929.57	1069.95
929.87	1069.34
930.18	1071.26
930.48	1071.92
930.78	1075.22
931.08	1075.13
931.38	1074.40
931.69	1079.46
931.99	1077.04
932.29	1076.65
932.59	1075.69
932.89	1074.91
933.19	1071.43
933.49	1070.33
933.80	1069.93
934.10	1070.91
934.40	1070.42
934.70	1069.72
935.00	1073.32
935.30	1073.07
935.60	1072.15
935.90	1074.12
936.20	1074.33
936.50	1074.96
936.81	1073.37
937.11	1074.94
937.41	1075.24
937.71	1077.14
938.01	1075.41
938.31	1076.69
938.61	1077.70
938.91	1076.97
939.21	1073.74
939.51	1072.20
939.81	1071.24
940.11	1068.59
940.41	1068.48
940.71	1072.88
941.01	1074.47
941.31	1076.95
941.61	1079.67
941.91	1082.40
942.21	1079.74
942.51	1079.01
942.81	1080.04
943.11	1079.55
943.41	1078.00
943.71	1078.14
944.01	1078.50
944.31	1075.92
944.61	1077.09
944.90	1078.14
945.20	1076.72
945.50	1078.45
945.80	1077.65
946.10	1075.97
946.40	1074.19
946.70	1077.25
947.00	1077.33
947.30	1080.06
947.60	1083.04
947.89	1085.52
948.19	1085.70
948.49	1085.87
948.79	1083.55
949.09	1081.47
949.39	1076.15
949.69	1070.30
949.98	1065.88
950.28	1067.85
950.58	1067.28
950.88	1069.20
951.18	1075.66
951.48	1080.67
951.77	1078.59
952.07	1077.58
952.37	1078.57
952.67	1077.70
952.97	1076.23
953.26	1078.64
953.56	1080.91
953.86	1080.23
954.16	1080.34
954.45	1079.71
954.75	1075.62
955.05	1071.12
955.35	1071.97
955.64	1071.19
955.94	1071.47
956.24	1072.81
956.54	1077.70
956.83	1077.61
957.13	1079.06
957.43	1079.41
957.72	1084.21
958.02	1084.07
958.32	1084.37
958.61	1081.02
958.91	1078.94
959.21	1075.31
959.50	1071.87
959.80	1071.26
960.10	1073.25
960.39	1072.90
960.69	1070.51
960.99	1070.91
961.28	1071.52
961.58	1068.29
961.87	1071.97
962.17	1074.56
962.47	1075.38
962.76	1072.50
963.06	1075.71
963.36	1072.08
963.65	1073.37
963.95	1075.85
964.24	1077.42
964.54	1076.60
964.83	1078.78
965.13	1077.11
965.42	1073.04
965.72	1070.80
966.02	1071.68
966.31	1068.50
966.61	1068.76
966.90	1073.09
967.20	1077.47
967.49	1074.10
967.79	1076.69
968.08	1076.44
968.38	1075.24
968.67	1074.05
968.97	1077.25
969.26	1076.67
969.56	1076.48
969.85	1073.84
970.15	1072.08
970.44	1068.99
970.74	1069.27
971.03	1072.08
971.32	1072.18
971.62	1074.19
971.91	1077.51
972.21	1076.67
972.50	1075.99
972.80	1078.89
973.09	1078.05
973.38	1077.42
973.68	1081.49
973.97	1079.03
974.27	1080.53
974.56	1080.02
974.85	1080.93
975.15	1079.06
975.44	1081.37
975.73	1080.91
976.03	1082.76
976.32	1080.74
976.61	1080.56
976.91	1077.98
977.20	1074.19
977.49	1071.64
977.79	1073.98
978.08	1071.36
978.37	1074.03
978.67	1074.68
978.96	1074.24
979.25	1072.04
979.55	1071.90
979.84	1070.02
980.13	1071.05
980.42	1069.79
980.72	1072.46
981.01	1077.00
981.30	1074.77
981.59	1075.17
981.89	1077.49
982.18	1075.08
982.47	1072.27
982.76	1076.62
983.06	1075.50
983.35	1075.50
983.64	1077.75
983.93	1077.33
984.22	1078.07
984.52	1078.80
984.81	1078.33
985.10	1075.92
985.39	1076.62
985.68	1073.88
985.97	1073.63
986.27	1072.11
986.56	1069.55
986.85	1068.69
987.14	1068.95
987.43	1067.82
987.72	1068.52
988.01	1071.54
988.31	1072.32
988.60	1071.24
988.89	1071.71
989.18	1073.70
989.47	1073.81
989.76	1072.74
990.05	1073.86
990.34	1073.72
990.63	1071.15
990.92	1069.18
991.21	1068.71
991.51	1070.68
991.80	1070.49
992.09	1076.37
992.38	1079.31
992.67	1081.68
992.96	1080.20
993.25	1082.73
993.54	1078.10
993.83	1078.61
994.12	1076.53
994.41	1074.17
994.70	1072.48
994.99	1075.17
995.28	1074.52
995.57	1074.14
995.86	1074.45
996.15	1076.23
996.44	1076.60
996.73	1076.58
997.02	1078.21
997.31	1082.17
997.59	1081.91
997.88	1079.60
998.17	1079.78
998.46	1079.27
998.75	1076.74
999.04	1074.28
999.33	1073.98
999.62	1071.68
999.91	1068.88
1000.20	1071.12
1000.49	1070.61
1000.77	1071.40
1001.06	1071.36
1001.35	1071.85
1001.64	1069.02
1001.93	1071.40
1002.22	1070.89
1002.51	1073.58
1002.79	1075.52
1003.08	1075.15
1003.37	1073.58
1003.66	1072.71
1003.95	1070.80
1004.23	1071.03
1004.52	1072.22
1004.81	1071.73
1005.10	1070.56
1005.39	1070.96
1005.67	1069.95
1005.96	1069.98
1006.25	1070.89
1006.54	1071.01
1006.83	1069.77
1007.11	1072.62
1007.40	1070.91
1007.69	1069.13
1007.97	1072.71
1008.26	1073.23
1008.55	1075.22
1008.84	1078.00
1009.12	1080.81
1009.41	1078.78
1009.70	1078.38
1009.98	1076.48
1010.27	1077.63
1010.56	1075.69
1010.85	1077.25
1011.13	1079.15
1011.42	1076.18
1011.71	1073.42
1011.99	1073.86
1012.28	1071.73
1012.56	1070.84
1012.85	1073.44
1013.14	1075.80
1013.42	1076.72
1013.71	1076.90
1014.00	1076.08
1014.28	1075.59
1014.57	1075.05
1014.85	1075.13
1015.14	1077.28
1015.43	1078.89
1015.71	1077.56
1016.00	1076.32
1016.28	1079.34
1016.57	1079.36
1016.85	1079.43
1017.14	1081.33
1017.43	1082.64
1017.71	1078.87
1018.00	1079.38
1018.28	1076.46
1018.57	1076.37
1018.85	1074.19
1019.14	1072.48
1019.42	1074.91
1019.71	1077.68
1019.99	1079.13
1020.28	1078.24
1020.56	1077.61
1020.85	1077.93
1021.13	1075.48
1021.42	1072.39
1021.70	1068.81
1021.99	1071.36
1022.27	1069.27
1022.55	1073.84
1022.84	1085.54
>>>>>End Processed Spectral Data<<<<<
