SpectraSuite Data File
++++++++++++++++++++++++++++++++++++
Date: Mon Aug 26 10:22:01 PDT 2019
User: corrico
Dark Spectrum Present: No
Reference Spectrum Present: No
Number of Sampled Component Spectra: 1
Spectrometers: USB2+H06089
Integration Time (usec): 2000 (USB2+H06089)
Spectra Averaged: 20 (USB2+H06089)
Boxcar Smoothing: 2 (USB2+H06089)
Correct for Electrical Dark: No (USB2+H06089)
Strobe/Lamp Enabled: No (USB2+H06089)
Correct for Detector Non-linearity: No (USB2+H06089)
Correct for Stray Light: No (USB2+H06089)
Number of Pixels in Processed Spectrum: 2048
>>>>>Begin Processed Spectral Data<<<<<
339.70	1033.35
340.07	1033.35
340.45	997.86
340.82	976.33
341.19	953.23
341.57	929.15
341.94	913.89
342.31	906.00
342.69	899.68
343.06	895.14
343.43	894.72
343.81	898.06
344.18	899.63
344.55	906.33
344.93	911.64
345.30	916.48
345.67	926.66
346.04	936.05
346.42	942.60
346.79	953.86
347.16	959.74
347.54	969.31
347.91	976.92
348.28	986.00
348.65	990.42
349.03	1000.58
349.40	1007.02
349.77	1014.65
350.14	1020.57
350.52	1032.86
350.89	1039.76
351.26	1045.28
351.63	1053.36
352.01	1058.98
352.38	1061.25
352.75	1064.38
353.12	1067.78
353.50	1069.65
353.87	1072.53
354.24	1074.89
354.61	1078.85
354.98	1079.38
355.36	1082.57
355.73	1083.32
356.10	1084.58
356.47	1083.41
356.84	1087.02
357.22	1085.05
357.59	1083.43
357.96	1082.94
358.33	1085.17
358.70	1082.87
359.08	1083.15
359.45	1082.69
359.82	1079.46
360.19	1077.28
360.56	1076.93
360.94	1076.27
361.31	1077.98
361.68	1079.34
362.05	1078.40
362.42	1079.20
362.79	1080.41
363.16	1082.31
363.54	1081.98
363.91	1087.72
364.28	1087.67
364.65	1087.55
365.02	1085.75
365.39	1083.83
365.76	1077.96
366.14	1078.03
366.51	1073.18
366.88	1070.61
367.25	1071.50
367.62	1071.87
367.99	1070.19
368.36	1071.52
368.73	1073.21
369.10	1074.87
369.48	1074.87
369.85	1074.82
370.22	1076.15
370.59	1076.06
370.96	1075.83
371.33	1076.41
371.70	1079.48
372.07	1079.29
372.44	1079.38
372.81	1076.83
373.18	1076.74
373.55	1073.53
373.93	1072.04
374.30	1074.12
374.67	1075.29
375.04	1074.35
375.41	1074.19
375.78	1074.91
376.15	1074.61
376.52	1079.85
376.89	1081.21
377.26	1083.15
377.63	1084.42
378.00	1083.25
378.37	1079.24
378.74	1075.01
379.11	1074.70
379.48	1073.84
379.85	1075.99
380.22	1075.85
380.59	1078.05
380.96	1077.23
381.33	1079.10
381.70	1075.62
382.07	1075.76
382.44	1076.18
382.81	1078.12
383.18	1078.21
383.55	1080.81
383.92	1083.08
384.29	1085.77
384.66	1087.30
385.03	1089.19
385.40	1089.29
385.77	1087.88
386.14	1088.00
386.51	1085.14
386.88	1085.68
387.25	1082.85
387.62	1083.55
387.99	1083.67
388.36	1085.66
388.73	1081.77
389.10	1083.69
389.46	1083.06
389.83	1083.15
390.20	1080.09
390.57	1080.98
390.94	1083.93
391.31	1084.18
391.68	1081.98
392.05	1081.70
392.42	1080.79
392.79	1079.41
393.16	1079.06
393.53	1078.07
393.89	1081.47
394.26	1082.36
394.63	1082.40
395.00	1083.57
395.37	1086.64
395.74	1089.31
396.11	1089.26
396.48	1090.27
396.84	1091.65
397.21	1089.43
397.58	1085.63
397.95	1087.25
398.32	1087.25
398.69	1082.38
399.06	1083.71
399.42	1083.86
399.79	1083.04
400.16	1084.63
400.53	1089.07
400.90	1090.43
401.27	1091.09
401.64	1091.51
402.00	1088.82
402.37	1087.95
402.74	1086.69
403.11	1087.41
403.48	1088.75
403.84	1087.74
404.21	1088.28
404.58	1086.62
404.95	1086.69
405.32	1087.37
405.68	1089.43
406.05	1089.19
406.42	1094.48
406.79	1094.27
407.16	1093.69
407.52	1094.97
407.89	1091.63
408.26	1090.10
408.63	1090.32
408.99	1092.47
409.36	1093.31
409.73	1095.44
410.10	1094.48
410.47	1095.56
410.83	1094.93
411.20	1092.47
411.57	1093.69
411.94	1095.02
412.30	1091.72
412.67	1090.97
413.04	1089.57
413.40	1089.71
413.77	1088.19
414.14	1092.68
414.51	1096.52
414.87	1098.72
415.24	1100.03
415.61	1099.93
415.97	1096.24
416.34	1093.90
416.71	1098.25
417.08	1100.05
417.44	1104.08
417.81	1109.20
418.18	1107.99
418.54	1106.96
418.91	1105.08
419.28	1102.13
419.64	1101.01
420.01	1103.28
420.38	1104.12
420.74	1110.23
421.11	1117.65
421.48	1118.24
421.84	1118.10
422.21	1119.41
422.58	1119.03
422.94	1115.94
423.31	1121.75
423.68	1127.76
424.04	1131.13
424.41	1132.91
424.77	1135.60
425.14	1136.94
425.51	1137.92
425.87	1140.87
426.24	1143.49
426.61	1149.95
426.97	1157.23
427.34	1164.63
427.70	1170.17
428.07	1177.94
428.44	1187.26
428.80	1191.47
429.17	1195.90
429.53	1202.78
429.90	1212.21
430.27	1217.69
430.63	1229.67
431.00	1243.29
431.36	1256.42
431.73	1266.49
432.09	1282.47
432.46	1293.36
432.83	1308.52
433.19	1323.99
433.56	1344.59
433.92	1362.59
434.29	1383.75
434.65	1404.30
435.02	1424.73
435.38	1450.03
435.75	1476.32
436.11	1502.11
436.48	1535.18
436.84	1570.94
437.21	1603.13
437.57	1634.77
437.94	1675.26
438.30	1711.45
438.67	1752.31
439.03	1799.36
439.40	1851.53
439.76	1907.75
440.13	1969.19
440.49	2031.87
440.86	2089.82
441.22	2158.09
441.59	2228.40
441.95	2306.18
442.32	2383.74
442.68	2476.45
443.05	2572.18
443.41	2666.22
443.78	2759.68
444.14	2870.01
444.51	2976.93
444.87	3102.85
445.24	3229.96
445.60	3368.90
445.96	3499.69
446.33	3654.72
446.69	3807.47
447.06	3983.29
447.42	4160.54
447.79	4355.88
448.15	4577.06
448.51	4787.38
448.88	5017.83
449.24	5236.29
449.61	5507.12
449.97	5776.30
450.33	6064.59
450.70	6341.00
451.06	6691.29
451.43	7004.01
451.79	7356.82
452.15	7724.75
452.52	8120.84
452.88	8521.05
453.24	8969.64
453.61	9447.22
453.97	9942.62
454.34	10452.32
454.70	11021.00
455.06	11600.68
455.43	12164.86
455.79	12707.77
456.15	13345.31
456.52	13962.58
456.88	14710.69
457.24	15454.30
457.61	16331.72
457.97	17132.09
458.33	17978.43
458.70	18781.04
459.06	19553.26
459.42	20351.31
459.79	21102.90
460.15	21946.76
460.51	22685.92
460.88	23473.96
461.24	24195.17
461.60	25061.45
461.96	25740.84
462.33	26421.58
462.69	27113.56
463.05	27871.36
463.42	28588.92
463.78	29297.77
464.14	29953.31
464.50	30659.19
464.87	31197.54
465.23	31507.14
465.59	31855.84
465.95	32168.63
466.32	32398.98
466.68	32627.61
467.04	32839.52
467.40	32967.92
467.77	33095.36
468.13	33045.49
468.49	32872.54
468.85	32718.47
469.22	32616.65
469.58	32420.52
469.94	32299.93
470.30	32147.56
470.66	31854.88
471.03	31323.44
471.39	30901.04
471.75	30226.73
472.11	29575.83
472.47	29109.17
472.84	28666.53
473.20	28020.07
473.56	27605.52
473.92	27073.47
474.28	26535.57
474.65	26030.13
475.01	25590.76
475.37	25080.62
475.73	24678.84
476.09	24200.11
476.45	23777.46
476.81	23373.69
477.18	22944.65
477.54	22548.65
477.90	22196.66
478.26	21752.26
478.62	21374.73
478.98	21104.28
479.34	20869.50
479.71	20581.59
480.07	20343.35
480.43	20061.95
480.79	19669.25
481.15	19240.28
481.51	18847.63
481.87	18493.56
482.23	18138.87
482.59	17841.69
482.96	17544.33
483.32	17259.81
483.68	16938.74
484.04	16636.34
484.40	16319.06
484.76	16040.00
485.12	15751.88
485.48	15500.41
485.84	15220.81
486.20	14950.94
486.56	14614.54
486.92	14321.55
487.28	14006.44
487.64	13681.27
488.00	13368.37
488.37	13040.69
488.73	12682.29
489.09	12320.02
489.45	12000.89
489.81	11679.81
490.17	11402.50
490.53	11099.97
490.89	10783.04
491.25	10473.97
491.61	10150.48
491.97	9842.35
492.33	9580.96
492.69	9343.86
493.05	9111.10
493.41	8898.55
493.77	8668.85
494.13	8424.20
494.49	8183.38
494.85	7948.30
495.21	7718.10
495.57	7522.69
495.93	7324.36
496.29	7123.54
496.64	6933.32
497.00	6745.47
497.36	6562.56
497.72	6400.57
498.08	6255.92
498.44	6107.82
498.80	5949.27
499.16	5779.04
499.52	5609.75
499.88	5449.68
500.24	5305.95
500.60	5185.06
500.96	5071.50
501.32	4965.19
501.68	4852.21
502.03	4734.72
502.39	4619.87
502.75	4514.80
503.11	4415.56
503.47	4323.06
503.83	4227.90
504.19	4129.76
504.55	4032.04
504.91	3930.60
505.26	3839.06
505.62	3749.68
505.98	3664.39
506.34	3570.58
506.70	3485.76
507.06	3406.13
507.42	3331.71
507.78	3254.47
508.13	3186.76
508.49	3122.02
508.85	3051.92
509.21	2984.04
509.57	2924.50
509.93	2864.96
510.28	2805.46
510.64	2753.45
511.00	2702.20
511.36	2648.81
511.72	2604.48
512.07	2561.51
512.43	2514.53
512.79	2471.96
513.15	2430.11
513.51	2387.23
513.86	2343.58
514.22	2305.45
514.58	2261.26
514.94	2223.25
515.30	2178.45
515.65	2140.89
516.01	2104.05
516.37	2073.86
516.73	2040.50
517.08	2014.50
517.44	1986.55
517.80	1961.02
518.16	1935.27
518.51	1911.21
518.87	1884.53
519.23	1859.95
519.59	1837.53
519.94	1816.37
520.30	1793.30
520.66	1772.23
521.01	1749.15
521.37	1726.54
521.73	1700.98
522.09	1682.68
522.44	1666.58
522.80	1647.62
523.16	1629.46
523.51	1613.61
523.87	1596.32
524.23	1579.72
524.58	1563.08
524.94	1549.22
525.30	1536.14
525.65	1520.76
526.01	1505.90
526.37	1496.42
526.72	1482.92
527.08	1470.16
527.44	1459.30
527.79	1449.63
528.15	1435.17
528.51	1426.88
528.86	1416.19
529.22	1406.43
529.58	1394.42
529.93	1387.26
530.29	1374.06
530.65	1367.88
531.00	1361.61
531.36	1355.94
531.71	1346.93
532.07	1342.02
532.43	1329.47
532.78	1315.66
533.14	1307.68
533.49	1303.12
533.85	1297.01
534.21	1295.37
534.56	1290.55
534.92	1287.39
535.27	1283.99
535.63	1279.06
535.98	1271.59
536.34	1269.58
536.69	1261.10
537.05	1253.82
537.41	1248.39
537.76	1243.92
538.12	1236.53
538.47	1232.46
538.83	1225.04
539.18	1217.80
539.54	1213.10
539.89	1209.85
540.25	1206.41
540.60	1203.81
540.96	1205.40
541.31	1203.85
541.67	1203.41
542.02	1200.51
542.38	1199.29
542.73	1192.48
543.09	1188.88
543.44	1185.15
543.80	1182.16
544.15	1180.33
544.51	1175.02
544.86	1171.25
545.22	1169.00
545.57	1164.95
545.93	1160.67
546.28	1164.79
546.64	1162.94
546.99	1161.56
547.35	1161.49
547.70	1164.14
548.05	1160.13
548.41	1158.35
548.76	1155.71
549.12	1155.15
549.47	1148.29
549.83	1145.48
550.18	1143.70
550.53	1144.99
550.89	1143.02
551.24	1142.20
551.60	1141.67
551.95	1138.83
552.30	1133.97
552.66	1128.86
553.01	1128.33
553.37	1128.35
553.72	1128.79
554.07	1129.10
554.43	1130.95
554.78	1129.00
555.13	1124.77
555.49	1122.83
555.84	1120.09
556.19	1119.36
556.55	1118.19
556.90	1119.62
557.26	1119.74
557.61	1120.67
557.96	1120.30
558.32	1119.50
558.67	1117.04
559.02	1114.38
559.37	1109.02
559.73	1107.38
560.08	1111.01
560.43	1111.59
560.79	1111.80
561.14	1112.11
561.49	1113.49
561.85	1111.31
562.20	1108.71
562.55	1107.31
562.90	1109.58
563.26	1106.02
563.61	1103.31
563.96	1108.36
564.32	1109.13
564.67	1110.54
565.02	1111.78
565.37	1111.47
565.73	1109.09
566.08	1107.96
566.43	1105.60
566.78	1105.76
567.14	1105.44
567.49	1104.78
567.84	1104.62
568.19	1101.39
568.54	1097.45
568.90	1095.58
569.25	1092.02
569.60	1091.37
569.95	1090.69
570.31	1093.33
570.66	1091.02
571.01	1093.12
571.36	1093.01
571.71	1093.55
572.06	1092.33
572.42	1095.00
572.77	1093.12
573.12	1094.04
573.47	1094.93
573.82	1095.75
574.18	1093.62
574.53	1093.03
574.88	1091.04
575.23	1089.89
575.58	1090.06
575.93	1092.89
576.28	1094.13
576.64	1095.14
576.99	1095.23
577.34	1093.66
577.69	1090.78
578.04	1088.12
578.39	1085.03
578.74	1084.58
579.09	1084.89
579.44	1085.07
579.80	1087.18
580.15	1088.16
580.50	1088.63
580.85	1090.15
581.20	1091.32
581.55	1092.02
581.90	1094.36
582.25	1094.65
582.60	1092.98
582.95	1093.29
583.30	1090.39
583.65	1089.54
584.00	1092.45
584.35	1092.96
584.71	1093.10
585.06	1093.71
585.41	1094.69
585.76	1092.82
586.11	1091.49
586.46	1088.30
586.81	1089.29
587.16	1087.86
587.51	1085.84
587.86	1087.32
588.21	1088.68
588.56	1087.20
588.91	1086.99
589.26	1087.62
589.61	1088.93
589.96	1089.99
590.31	1092.26
590.66	1091.91
591.01	1087.90
591.36	1085.52
591.71	1082.17
592.06	1080.58
592.41	1080.98
592.76	1085.68
593.10	1084.56
593.45	1088.51
593.80	1088.68
594.15	1086.62
594.50	1084.25
594.85	1086.59
595.20	1085.59
595.55	1084.93
595.90	1087.62
596.25	1088.84
596.60	1086.03
596.95	1087.81
597.30	1089.10
597.64	1099.26
597.99	1097.13
598.34	1097.78
598.69	1096.96
599.04	1094.74
599.39	1082.94
599.74	1083.50
600.09	1081.33
600.44	1079.83
600.78	1081.63
601.13	1081.19
601.48	1082.31
601.83	1081.68
602.18	1082.01
602.53	1080.98
602.88	1081.98
603.22	1081.98
603.57	1084.60
603.92	1085.45
604.27	1084.37
604.62	1083.13
604.97	1081.73
605.31	1081.56
605.66	1078.36
606.01	1080.48
606.36	1082.40
606.71	1080.51
607.05	1082.33
607.40	1084.49
607.75	1086.34
608.10	1087.51
608.44	1093.73
608.79	1091.95
609.14	1091.18
609.49	1092.16
609.84	1090.15
610.18	1089.05
610.53	1091.32
610.88	1094.18
611.23	1089.33
611.57	1089.96
611.92	1088.09
612.27	1087.48
612.62	1082.38
612.96	1083.15
613.31	1083.64
613.66	1085.80
614.00	1084.14
614.35	1087.55
614.70	1087.20
615.05	1085.94
615.39	1086.24
615.74	1086.10
616.09	1083.62
616.43	1086.85
616.78	1088.49
617.13	1085.91
617.47	1085.63
617.82	1089.05
618.17	1085.28
618.51	1084.16
618.86	1083.97
619.21	1085.07
619.55	1083.08
619.90	1084.96
620.25	1082.50
620.59	1082.54
620.94	1080.02
621.29	1079.43
621.63	1079.29
621.98	1083.41
622.32	1085.70
622.67	1087.58
623.02	1088.09
623.36	1087.13
623.71	1085.54
624.05	1083.62
624.40	1084.04
624.75	1084.96
625.09	1086.45
625.44	1083.50
625.78	1084.56
626.13	1082.40
626.48	1083.04
626.82	1083.76
627.17	1085.24
627.51	1085.28
627.86	1086.87
628.20	1082.47
628.55	1080.48
628.89	1080.02
629.24	1075.73
629.58	1073.14
629.93	1075.10
630.28	1073.93
630.62	1074.87
630.97	1078.99
631.31	1084.02
631.66	1086.85
632.00	1087.62
632.35	1086.57
632.69	1084.79
633.04	1081.91
633.38	1080.70
633.73	1080.70
634.07	1078.78
634.42	1078.21
634.76	1076.62
635.11	1074.31
635.45	1075.64
635.79	1080.84
636.14	1080.72
636.48	1082.78
636.83	1085.47
637.17	1085.52
637.52	1083.60
637.86	1081.96
638.21	1083.08
638.55	1083.50
638.89	1081.05
639.24	1081.82
639.58	1085.91
639.93	1086.15
640.27	1081.44
640.61	1081.82
640.96	1081.94
641.30	1083.20
641.65	1080.44
641.99	1082.94
642.33	1084.63
642.68	1081.16
643.02	1079.41
643.37	1078.47
643.71	1079.57
644.05	1077.04
644.40	1079.99
644.74	1080.67
645.08	1081.33
645.43	1080.48
645.77	1081.09
646.11	1079.78
646.46	1078.14
646.80	1081.30
647.14	1079.71
647.49	1081.82
647.83	1083.88
648.17	1084.09
648.52	1082.45
648.86	1086.31
649.20	1085.45
649.55	1080.44
649.89	1080.79
650.23	1078.00
650.57	1076.06
650.92	1074.54
651.26	1074.96
651.60	1074.75
651.95	1077.75
652.29	1074.82
652.63	1074.52
652.97	1074.70
653.32	1073.70
653.66	1077.07
654.00	1081.70
654.34	1082.36
654.69	1083.15
655.03	1085.38
655.37	1083.50
655.71	1080.06
656.05	1082.59
656.40	1083.90
656.74	1083.76
657.08	1083.27
657.42	1084.74
657.76	1084.02
658.11	1085.59
658.45	1081.12
658.79	1081.40
659.13	1080.18
659.47	1078.19
659.82	1077.61
660.16	1081.98
660.50	1078.66
660.84	1078.45
661.18	1080.20
661.52	1080.37
661.87	1079.43
662.21	1081.07
662.55	1078.87
662.89	1078.52
663.23	1078.45
663.57	1077.33
663.91	1078.19
664.25	1081.37
664.60	1083.39
664.94	1082.31
665.28	1082.66
665.62	1081.28
665.96	1081.44
666.30	1078.14
666.64	1079.62
666.98	1079.50
667.32	1079.90
667.66	1078.57
668.01	1080.91
668.35	1082.01
668.69	1087.41
669.03	1089.17
669.37	1091.58
669.71	1089.82
670.05	1086.80
670.39	1081.07
670.73	1078.99
671.07	1080.04
671.41	1080.48
671.75	1080.84
672.09	1081.94
672.43	1083.93
672.77	1084.56
673.11	1085.17
673.45	1085.14
673.79	1084.63
674.13	1078.89
674.47	1075.57
674.81	1075.50
675.15	1076.53
675.49	1077.63
675.83	1083.57
676.17	1084.39
676.51	1084.35
676.85	1082.97
677.19	1081.44
677.53	1080.88
677.87	1082.97
678.21	1082.43
678.55	1085.35
678.89	1083.32
679.23	1079.64
679.57	1076.72
679.90	1078.68
680.24	1077.86
680.58	1080.13
680.92	1082.92
681.26	1084.65
681.60	1083.71
681.94	1082.59
682.28	1082.99
682.62	1081.28
682.96	1081.09
683.29	1082.45
683.63	1081.09
683.97	1083.27
684.31	1085.35
684.65	1085.33
684.99	1081.89
685.33	1080.72
685.67	1079.29
686.00	1076.74
686.34	1074.03
686.68	1074.35
687.02	1077.86
687.36	1076.08
687.70	1074.91
688.03	1075.90
688.37	1077.42
688.71	1076.62
689.05	1078.73
689.39	1079.10
689.72	1078.61
690.06	1079.57
690.40	1079.41
690.74	1080.65
691.08	1081.40
691.41	1083.62
691.75	1078.31
692.09	1077.65
692.43	1077.35
692.76	1076.60
693.10	1073.88
693.44	1076.48
693.78	1077.70
694.11	1076.41
694.45	1078.00
694.79	1077.21
695.13	1080.34
695.46	1080.27
695.80	1077.04
696.14	1078.00
696.48	1079.90
696.81	1078.68
697.15	1078.36
697.49	1078.21
697.82	1078.57
698.16	1077.23
698.50	1078.94
698.83	1078.33
699.17	1079.97
699.51	1079.78
699.84	1082.69
700.18	1079.62
700.52	1079.38
700.85	1078.38
701.19	1078.78
701.53	1075.17
701.86	1076.37
702.20	1076.93
702.54	1077.00
702.87	1075.76
703.21	1079.85
703.55	1075.80
703.88	1076.48
704.22	1077.61
704.55	1078.71
704.89	1079.62
705.23	1083.29
705.56	1081.23
705.90	1085.56
706.23	1084.28
706.57	1077.25
706.91	1074.63
707.24	1076.25
707.58	1072.83
707.91	1072.95
708.25	1075.85
708.58	1078.05
708.92	1078.03
709.26	1080.74
709.59	1081.37
709.93	1082.19
710.26	1080.32
710.60	1079.95
710.93	1077.33
711.27	1077.58
711.60	1080.77
711.94	1083.57
712.27	1082.15
712.61	1080.79
712.94	1082.85
713.28	1080.63
713.61	1078.28
713.95	1080.77
714.28	1082.05
714.62	1079.41
714.95	1079.83
715.29	1080.93
715.62	1080.74
715.96	1081.91
716.29	1081.30
716.63	1080.16
716.96	1080.88
717.29	1078.89
717.63	1077.47
717.96	1078.50
718.30	1081.07
718.63	1080.09
718.97	1080.58
719.30	1080.70
719.63	1080.51
719.97	1078.38
720.30	1080.39
720.64	1084.49
720.97	1084.91
721.30	1085.54
721.64	1086.34
721.97	1085.10
722.31	1083.43
722.64	1083.18
722.97	1084.02
723.31	1083.13
723.64	1085.12
723.97	1082.59
724.31	1083.46
724.64	1084.25
724.98	1084.02
725.31	1083.01
725.64	1083.76
725.98	1081.75
726.31	1081.02
726.64	1083.57
726.97	1084.39
727.31	1081.26
727.64	1081.75
727.97	1079.92
728.31	1078.54
728.64	1078.31
728.97	1080.04
729.31	1080.98
729.64	1081.28
729.97	1080.34
730.30	1075.62
730.64	1077.40
730.97	1076.06
731.30	1072.11
731.63	1070.61
731.97	1074.38
732.30	1076.51
732.63	1076.04
732.96	1078.71
733.30	1078.96
733.63	1075.94
733.96	1072.18
734.29	1072.22
734.63	1073.56
734.96	1074.47
735.29	1074.49
735.62	1073.93
735.95	1072.15
736.29	1072.57
736.62	1071.97
736.95	1075.59
737.28	1078.07
737.61	1080.48
737.94	1077.65
738.28	1079.64
738.61	1075.69
738.94	1076.13
739.27	1077.63
739.60	1079.46
739.93	1077.98
740.27	1079.17
740.60	1076.37
740.93	1077.84
741.26	1080.58
741.59	1081.19
741.92	1083.41
742.25	1087.32
742.58	1083.06
742.91	1080.02
743.25	1081.19
743.58	1078.26
743.91	1073.07
744.24	1070.98
744.57	1071.64
744.90	1069.74
745.23	1074.21
745.56	1078.82
745.89	1085.35
746.22	1087.30
746.55	1089.66
746.88	1086.15
747.21	1081.58
747.54	1078.82
747.87	1076.67
748.20	1077.54
748.53	1081.61
748.87	1081.56
749.20	1083.69
749.53	1084.39
749.86	1082.45
750.19	1079.03
750.52	1082.50
750.85	1079.20
751.18	1077.63
751.51	1080.39
751.84	1079.83
752.16	1079.24
752.49	1079.48
752.82	1082.99
753.15	1079.97
753.48	1082.10
753.81	1083.25
754.14	1085.07
754.47	1083.69
754.80	1086.80
755.13	1084.96
755.46	1081.49
755.79	1078.92
756.12	1076.62
756.45	1074.42
756.78	1073.42
757.11	1076.65
757.43	1077.72
757.76	1078.21
758.09	1077.79
758.42	1078.50
758.75	1079.06
759.08	1080.53
759.41	1078.82
759.74	1075.41
760.07	1075.38
760.39	1073.95
760.72	1072.67
761.05	1073.70
761.38	1077.56
761.71	1078.75
762.04	1076.15
762.36	1078.57
762.69	1078.94
763.02	1078.85
763.35	1078.26
763.68	1079.69
764.01	1077.72
764.33	1078.50
764.66	1077.18
764.99	1074.63
765.32	1073.65
765.65	1073.07
765.97	1074.03
766.30	1074.05
766.63	1075.34
766.96	1078.00
767.28	1078.66
767.61	1077.25
767.94	1077.14
768.27	1078.66
768.59	1078.96
768.92	1077.28
769.25	1074.98
769.58	1076.72
769.90	1075.80
770.23	1075.05
770.56	1075.80
770.89	1081.42
771.21	1081.37
771.54	1082.50
771.87	1080.53
772.19	1080.72
772.52	1076.53
772.85	1075.52
773.17	1074.21
773.50	1073.09
773.83	1070.68
774.15	1072.48
774.48	1070.65
774.81	1072.20
775.13	1075.71
775.46	1080.84
775.79	1079.67
776.11	1081.09
776.44	1081.94
776.77	1080.16
777.09	1078.82
777.42	1077.65
777.74	1076.08
778.07	1073.02
778.40	1074.59
778.72	1071.73
779.05	1072.41
779.37	1075.59
779.70	1077.37
780.03	1076.18
780.35	1078.87
780.68	1080.65
781.00	1080.02
781.33	1079.50
781.65	1079.92
781.98	1077.47
782.31	1079.83
782.63	1078.99
782.96	1081.44
783.28	1083.39
783.61	1086.78
783.93	1082.78
784.26	1083.48
784.58	1080.63
784.91	1079.85
785.23	1081.82
785.56	1084.93
785.88	1083.90
786.21	1083.22
786.53	1081.44
786.86	1075.64
787.18	1073.32
787.51	1070.42
787.83	1071.78
788.16	1072.15
788.48	1073.81
788.81	1075.94
789.13	1078.66
789.46	1080.13
789.78	1078.26
790.10	1078.99
790.43	1077.44
790.75	1077.28
791.08	1075.78
791.40	1079.31
791.73	1078.24
792.05	1076.48
792.37	1073.98
792.70	1076.27
793.02	1076.65
793.35	1076.25
793.67	1074.89
793.99	1077.42
794.32	1074.03
794.64	1072.81
794.96	1074.21
795.29	1077.40
795.61	1076.23
795.93	1077.61
796.26	1076.37
796.58	1078.26
796.91	1080.72
797.23	1082.78
797.55	1083.95
797.87	1084.04
798.20	1083.60
798.52	1082.97
798.84	1084.11
799.17	1084.65
799.49	1083.15
799.81	1085.07
800.14	1081.89
800.46	1081.75
800.78	1082.64
801.10	1084.58
801.43	1079.88
801.75	1082.03
802.07	1080.41
802.40	1080.20
802.72	1083.69
803.04	1085.70
803.36	1082.17
803.69	1080.63
804.01	1079.81
804.33	1076.13
804.65	1075.87
804.97	1080.27
805.30	1081.12
805.62	1078.85
805.94	1079.97
806.26	1081.87
806.58	1079.08
806.91	1081.75
807.23	1081.94
807.55	1082.69
807.87	1082.52
808.19	1079.88
808.52	1081.07
808.84	1082.69
809.16	1081.16
809.48	1077.30
809.80	1081.42
810.12	1078.21
810.44	1076.01
810.77	1076.67
811.09	1081.33
811.41	1079.34
811.73	1080.48
812.05	1082.40
812.37	1082.24
812.69	1080.93
813.01	1084.67
813.33	1080.79
813.66	1077.75
813.98	1077.09
814.30	1077.23
814.62	1075.97
814.94	1079.01
815.26	1082.10
815.58	1081.98
815.90	1078.36
816.22	1075.17
816.54	1074.49
816.86	1075.03
817.18	1076.18
817.50	1076.88
817.82	1078.28
818.14	1077.07
818.46	1076.53
818.78	1074.70
819.10	1074.56
819.42	1075.36
819.74	1074.82
820.06	1075.57
820.38	1077.84
820.70	1081.12
821.02	1080.98
821.34	1084.77
821.66	1083.88
821.98	1081.58
822.30	1079.53
822.62	1079.17
822.94	1078.59
823.26	1080.23
823.58	1082.01
823.90	1080.98
824.22	1081.47
824.54	1077.79
824.86	1075.08
825.18	1075.73
825.50	1076.95
825.81	1075.03
826.13	1077.63
826.45	1078.47
826.77	1076.11
827.09	1074.26
827.41	1074.47
827.73	1075.15
828.05	1075.50
828.36	1079.08
828.68	1082.45
829.00	1084.46
829.32	1083.27
829.64	1081.89
829.96	1078.82
830.28	1077.23
830.59	1076.18
830.91	1075.94
831.23	1075.66
831.55	1076.62
831.87	1077.77
832.19	1078.68
832.50	1077.16
832.82	1078.43
833.14	1077.11
833.46	1071.92
833.78	1071.64
834.09	1074.21
834.41	1073.77
834.73	1070.07
835.05	1074.61
835.36	1074.03
835.68	1074.17
836.00	1072.60
836.32	1076.20
836.63	1076.08
836.95	1074.77
837.27	1071.54
837.59	1071.61
837.90	1070.91
838.22	1071.54
838.54	1071.82
838.85	1076.65
839.17	1075.05
839.49	1076.95
839.80	1073.67
840.12	1076.97
840.44	1075.62
840.76	1078.73
841.07	1073.63
841.39	1075.57
841.71	1070.98
842.02	1069.72
842.34	1067.17
842.65	1072.15
842.97	1070.61
843.29	1073.28
843.60	1076.08
843.92	1077.47
844.24	1078.10
844.55	1080.46
844.87	1080.32
845.18	1078.89
845.50	1079.71
845.82	1080.04
846.13	1079.41
846.45	1078.47
846.76	1080.04
847.08	1081.89
847.40	1080.32
847.71	1077.28
848.03	1080.77
848.34	1078.94
848.66	1076.30
848.97	1075.36
849.29	1077.04
849.60	1074.54
849.92	1073.18
850.24	1073.00
850.55	1075.24
850.87	1075.03
851.18	1075.71
851.50	1075.83
851.81	1077.75
852.13	1079.99
852.44	1081.14
852.76	1080.20
853.07	1082.24
853.39	1081.66
853.70	1078.64
854.01	1077.28
854.33	1075.29
854.64	1074.14
854.96	1074.87
855.27	1075.34
855.59	1076.15
855.90	1078.52
856.22	1077.86
856.53	1076.39
856.84	1079.48
857.16	1081.00
857.47	1082.19
857.79	1082.66
858.10	1081.54
858.41	1077.37
858.73	1077.72
859.04	1072.06
859.36	1070.89
859.67	1073.32
859.98	1071.80
860.30	1070.80
860.61	1077.28
860.92	1077.70
861.24	1076.20
861.55	1077.72
861.87	1076.81
862.18	1072.36
862.49	1074.00
862.81	1073.00
863.12	1072.60
863.43	1074.38
863.74	1077.40
864.06	1075.99
864.37	1075.38
864.68	1074.03
865.00	1071.71
865.31	1070.28
865.62	1073.28
865.94	1075.62
866.25	1077.96
866.56	1080.79
866.87	1083.18
867.19	1081.80
867.50	1082.54
867.81	1084.07
868.12	1083.57
868.44	1084.07
868.75	1081.84
869.06	1081.63
869.37	1077.37
869.68	1076.81
870.00	1072.53
870.31	1074.17
870.62	1073.18
870.93	1075.29
871.24	1075.62
871.56	1078.68
871.87	1077.30
872.18	1077.65
872.49	1079.99
872.80	1078.28
873.12	1074.59
873.43	1073.98
873.74	1074.26
874.05	1071.24
874.36	1069.30
874.67	1069.95
874.98	1069.91
875.29	1068.55
875.61	1068.97
875.92	1070.33
876.23	1073.04
876.54	1074.73
876.85	1075.41
877.16	1079.46
877.47	1078.85
877.78	1077.25
878.09	1075.55
878.40	1077.40
878.72	1073.95
879.03	1073.65
879.34	1073.51
879.65	1074.31
879.96	1072.92
880.27	1072.57
880.58	1074.59
880.89	1073.74
881.20	1075.41
881.51	1075.85
881.82	1076.18
882.13	1074.56
882.44	1079.06
882.75	1079.13
883.06	1080.18
883.37	1079.74
883.68	1082.03
883.99	1080.72
884.30	1081.00
884.61	1079.88
884.92	1081.66
885.23	1079.53
885.54	1078.59
885.85	1081.00
886.16	1078.33
886.47	1078.40
886.78	1079.15
887.08	1078.71
887.39	1073.84
887.70	1076.93
888.01	1075.50
888.32	1077.00
888.63	1078.61
888.94	1081.58
889.25	1081.58
889.56	1082.01
889.87	1082.22
890.17	1081.80
890.48	1081.54
890.79	1080.20
891.10	1079.13
891.41	1078.50
891.72	1078.80
892.03	1076.27
892.34	1076.97
892.64	1078.45
892.95	1079.27
893.26	1074.75
893.57	1073.63
893.88	1075.01
894.18	1072.15
894.49	1073.49
894.80	1077.49
895.11	1081.05
895.42	1078.21
895.72	1080.58
896.03	1077.54
896.34	1077.93
896.65	1077.42
896.96	1076.46
897.26	1079.06
897.57	1078.94
897.88	1077.33
898.19	1075.55
898.49	1078.38
898.80	1077.91
899.11	1078.61
899.41	1080.70
899.72	1080.95
900.03	1080.06
900.34	1074.33
900.64	1074.42
900.95	1076.41
901.26	1074.49
901.56	1074.17
901.87	1077.04
902.18	1077.11
902.48	1074.49
902.79	1077.91
903.10	1079.06
903.40	1079.71
903.71	1076.97
904.02	1076.58
904.32	1075.87
904.63	1074.49
904.94	1074.94
905.24	1077.18
905.55	1078.54
905.85	1080.27
906.16	1080.46
906.47	1078.85
906.77	1077.68
907.08	1078.03
907.38	1077.28
907.69	1077.58
908.00	1078.17
908.30	1081.16
908.61	1080.46
908.91	1081.37
909.22	1080.44
909.52	1081.98
909.83	1079.64
910.14	1078.71
910.44	1075.29
910.75	1076.62
911.05	1076.69
911.36	1078.21
911.66	1077.23
911.97	1076.06
912.27	1075.66
912.58	1075.29
912.88	1074.68
913.19	1074.40
913.49	1078.57
913.80	1080.23
914.10	1077.16
914.41	1075.80
914.71	1077.28
915.01	1073.58
915.32	1068.20
915.62	1070.89
915.93	1071.99
916.23	1071.45
916.54	1072.92
916.84	1075.43
917.15	1076.34
917.45	1078.92
917.75	1077.77
918.06	1077.47
918.36	1077.68
918.67	1076.46
918.97	1073.65
919.27	1073.93
919.58	1075.27
919.88	1077.49
920.18	1078.17
920.49	1079.57
920.79	1078.12
921.10	1077.00
921.40	1072.97
921.70	1073.07
922.01	1072.18
922.31	1075.52
922.61	1075.59
922.92	1077.86
923.22	1077.21
923.52	1076.34
923.82	1074.31
924.13	1075.94
924.43	1076.74
924.73	1074.84
925.04	1076.74
925.34	1079.88
925.64	1078.47
925.94	1080.86
926.25	1087.32
926.55	1089.07
926.85	1085.94
927.15	1088.70
927.46	1085.91
927.76	1079.41
928.06	1077.70
928.36	1075.94
928.67	1073.02
928.97	1075.03
929.27	1076.97
929.57	1077.09
929.87	1078.07
930.18	1077.47
930.48	1076.83
930.78	1075.31
931.08	1074.28
931.38	1076.58
931.69	1072.76
931.99	1068.34
932.29	1073.53
932.59	1072.46
932.89	1073.28
933.19	1081.26
933.49	1082.19
933.80	1076.90
934.10	1075.83
934.40	1073.11
934.70	1071.99
935.00	1075.41
935.30	1078.24
935.60	1080.86
935.90	1081.09
936.20	1080.39
936.50	1079.81
936.81	1077.56
937.11	1079.36
937.41	1081.33
937.71	1080.79
938.01	1081.14
938.31	1083.27
938.61	1081.84
938.91	1078.75
939.21	1078.87
939.51	1076.60
939.81	1076.97
940.11	1077.40
940.41	1081.82
940.71	1081.42
941.01	1082.83
941.31	1081.96
941.61	1082.59
941.91	1079.83
942.21	1080.06
942.51	1078.94
942.81	1079.67
943.11	1076.25
943.41	1078.52
943.71	1079.97
944.01	1081.87
944.31	1078.24
944.61	1083.06
944.90	1081.12
945.20	1080.30
945.50	1080.98
945.80	1083.88
946.10	1078.10
946.40	1078.52
946.70	1078.80
947.00	1079.83
947.30	1077.93
947.60	1082.52
947.89	1084.56
948.19	1082.36
948.49	1081.68
948.79	1083.15
949.09	1080.51
949.39	1078.71
949.69	1079.03
949.98	1075.71
950.28	1075.22
950.58	1075.36
950.88	1074.12
951.18	1074.49
951.48	1076.58
951.77	1074.96
952.07	1073.98
952.37	1076.37
952.67	1072.88
952.97	1072.53
953.26	1075.08
953.56	1075.94
953.86	1070.68
954.16	1072.81
954.45	1074.40
954.75	1074.54
955.05	1074.98
955.35	1077.56
955.64	1080.04
955.94	1077.72
956.24	1076.67
956.54	1075.66
956.83	1075.36
957.13	1073.44
957.43	1070.82
957.72	1071.92
958.02	1072.22
958.32	1074.89
958.61	1073.28
958.91	1075.80
959.21	1072.13
959.50	1072.34
959.80	1070.44
960.10	1071.12
960.39	1071.97
960.69	1073.67
960.99	1074.61
961.28	1075.57
961.58	1082.17
961.87	1082.12
962.17	1084.86
962.47	1086.13
962.76	1085.17
963.06	1080.95
963.36	1080.30
963.65	1078.50
963.95	1076.83
964.24	1076.60
964.54	1076.20
964.83	1079.10
965.13	1077.54
965.42	1077.93
965.72	1079.38
966.02	1078.40
966.31	1075.50
966.61	1076.44
966.90	1077.00
967.20	1073.42
967.49	1073.86
967.79	1076.46
968.08	1076.34
968.38	1075.15
968.67	1077.56
968.97	1077.89
969.26	1076.01
969.56	1076.79
969.85	1076.25
970.15	1072.55
970.44	1070.80
970.74	1070.75
971.03	1072.22
971.32	1070.19
971.62	1071.99
971.91	1070.94
972.21	1067.92
972.50	1070.00
972.80	1073.98
973.09	1076.51
973.38	1080.23
973.68	1082.87
973.97	1080.02
974.27	1078.12
974.56	1078.24
974.85	1075.43
975.15	1076.20
975.44	1074.66
975.73	1074.61
976.03	1074.82
976.32	1077.37
976.61	1075.43
976.91	1075.76
977.20	1077.75
977.49	1077.00
977.79	1075.08
978.08	1076.37
978.37	1075.85
978.67	1076.90
978.96	1076.27
979.25	1077.82
979.55	1077.77
979.84	1077.84
980.13	1074.91
980.42	1074.49
980.72	1075.45
981.01	1075.17
981.30	1076.44
981.59	1079.22
981.89	1081.84
982.18	1079.24
982.47	1078.47
982.76	1080.88
983.06	1079.71
983.35	1081.28
983.64	1079.50
983.93	1081.35
984.22	1078.87
984.52	1078.21
984.81	1075.20
985.10	1075.48
985.39	1073.88
985.68	1074.61
985.97	1074.52
986.27	1077.28
986.56	1078.99
986.85	1080.23
987.14	1080.09
987.43	1079.06
987.72	1077.21
988.01	1077.61
988.31	1073.77
988.60	1074.54
988.89	1074.24
989.18	1074.10
989.47	1075.71
989.76	1080.16
990.05	1077.40
990.34	1080.81
990.63	1081.56
990.92	1077.98
991.21	1075.92
991.51	1078.05
991.80	1076.23
992.09	1076.01
992.38	1078.64
992.67	1078.40
992.96	1078.64
993.25	1080.44
993.54	1076.83
993.83	1075.08
994.12	1073.21
994.41	1069.23
994.70	1068.01
994.99	1070.00
995.28	1070.21
995.57	1073.46
995.86	1077.18
996.15	1074.54
996.44	1076.74
996.73	1078.82
997.02	1081.07
997.31	1079.83
997.59	1081.26
997.88	1078.99
998.17	1077.91
998.46	1078.33
998.75	1078.82
999.04	1078.82
999.33	1081.00
999.62	1085.35
999.91	1081.19
1000.20	1080.70
1000.49	1078.05
1000.77	1074.00
1001.06	1070.37
1001.35	1074.10
1001.64	1073.53
1001.93	1074.45
1002.22	1074.73
1002.51	1075.15
1002.79	1073.65
1003.08	1077.28
1003.37	1081.73
1003.66	1084.79
1003.95	1086.62
1004.23	1083.83
1004.52	1083.13
1004.81	1079.31
1005.10	1077.51
1005.39	1075.94
1005.67	1077.96
1005.96	1077.25
1006.25	1079.50
1006.54	1082.54
1006.83	1079.71
1007.11	1079.67
1007.40	1077.00
1007.69	1076.46
1007.97	1072.85
1008.26	1074.63
1008.55	1074.05
1008.84	1077.56
1009.12	1076.08
1009.41	1076.51
1009.70	1078.12
1009.98	1080.84
1010.27	1076.65
1010.56	1075.48
1010.85	1075.99
1011.13	1075.31
1011.42	1073.81
1011.71	1081.19
1011.99	1085.24
1012.28	1083.13
1012.56	1080.46
1012.85	1079.41
1013.14	1075.59
1013.42	1072.74
1013.71	1075.22
1014.00	1076.88
1014.28	1078.38
1014.57	1077.09
1014.85	1078.82
1015.14	1079.06
1015.43	1077.18
1015.71	1080.84
1016.00	1079.62
1016.28	1078.87
1016.57	1078.87
1016.85	1080.77
1017.14	1077.04
1017.43	1076.83
1017.71	1076.58
1018.00	1074.42
1018.28	1076.01
1018.57	1076.72
1018.85	1077.96
1019.14	1077.04
1019.42	1079.55
1019.71	1077.02
1019.99	1075.36
1020.28	1074.47
1020.56	1074.94
1020.85	1075.22
1021.13	1074.96
1021.42	1075.92
1021.70	1078.99
1021.99	1078.71
1022.27	1077.18
1022.55	1071.73
1022.84	1074.42
>>>>>End Processed Spectral Data<<<<<
