SpectraSuite Data File
++++++++++++++++++++++++++++++++++++
Date: Mon Aug 26 10:22:35 PDT 2019
User: corrico
Dark Spectrum Present: No
Reference Spectrum Present: No
Number of Sampled Component Spectra: 1
Spectrometers: USB2+H06089
Integration Time (usec): 2000 (USB2+H06089)
Spectra Averaged: 20 (USB2+H06089)
Boxcar Smoothing: 2 (USB2+H06089)
Correct for Electrical Dark: No (USB2+H06089)
Strobe/Lamp Enabled: No (USB2+H06089)
Correct for Detector Non-linearity: No (USB2+H06089)
Correct for Stray Light: No (USB2+H06089)
Number of Pixels in Processed Spectrum: 2048
>>>>>Begin Processed Spectral Data<<<<<
339.70	1029.84
340.07	1029.84
340.45	995.03
340.82	971.14
341.19	944.97
341.57	919.08
341.94	906.86
342.31	900.52
342.69	899.07
343.06	899.05
343.43	897.01
343.81	900.03
344.18	903.61
344.55	906.11
344.93	910.87
345.30	918.43
345.67	923.51
346.04	928.72
346.42	932.89
346.79	942.91
347.16	953.44
347.54	962.69
347.91	972.47
348.28	985.08
348.65	992.04
349.03	1001.09
349.40	1011.56
349.77	1018.88
350.14	1028.08
350.52	1038.24
350.89	1044.77
351.26	1045.47
351.63	1051.95
352.01	1054.67
352.38	1058.55
352.75	1058.20
353.12	1062.32
353.50	1067.00
353.87	1068.83
354.24	1070.12
354.61	1078.36
354.98	1081.84
355.36	1082.99
355.73	1083.64
356.10	1085.87
356.47	1084.42
356.84	1087.79
357.22	1086.62
357.59	1089.31
357.96	1089.10
358.33	1088.26
358.70	1087.76
359.08	1087.37
359.45	1086.69
359.82	1083.27
360.19	1080.34
360.56	1076.88
360.94	1074.66
361.31	1074.31
361.68	1077.30
362.05	1078.47
362.42	1079.15
362.79	1081.73
363.16	1079.99
363.54	1075.08
363.91	1074.45
364.28	1075.83
364.65	1074.70
365.02	1075.43
365.39	1078.00
365.76	1076.90
366.14	1073.72
366.51	1071.92
366.88	1070.87
367.25	1069.67
367.62	1071.61
367.99	1074.19
368.36	1076.53
368.73	1076.06
369.10	1073.72
369.48	1073.77
369.85	1070.37
370.22	1071.31
370.59	1073.18
370.96	1079.06
371.33	1078.38
371.70	1079.99
372.07	1081.07
372.44	1079.01
372.81	1072.97
373.18	1073.32
373.55	1075.59
373.93	1075.31
374.30	1078.45
374.67	1079.24
375.04	1078.82
375.41	1077.63
375.78	1076.34
376.15	1075.38
376.52	1080.60
376.89	1081.51
377.26	1079.85
377.63	1076.25
378.00	1076.81
378.37	1073.95
378.74	1073.63
379.11	1076.51
379.48	1081.75
379.85	1080.60
380.22	1082.76
380.59	1083.64
380.96	1082.43
381.33	1078.99
381.70	1078.80
382.07	1076.32
382.44	1077.68
382.81	1078.07
383.18	1080.88
383.55	1081.00
383.92	1081.91
384.29	1079.88
384.66	1081.28
385.03	1082.83
385.40	1084.14
385.77	1083.39
386.14	1083.79
386.51	1083.57
386.88	1084.18
387.25	1085.38
387.62	1088.93
387.99	1089.59
388.36	1089.92
388.73	1090.85
389.10	1092.49
389.46	1088.40
389.83	1088.65
390.20	1086.64
390.57	1084.56
390.94	1081.91
391.31	1083.18
391.68	1084.86
392.05	1086.71
392.42	1086.17
392.79	1086.15
393.16	1089.00
393.53	1086.31
393.89	1084.18
394.26	1084.74
394.63	1083.53
395.00	1080.81
395.37	1080.04
395.74	1080.58
396.11	1080.34
396.48	1081.12
396.84	1083.50
397.21	1085.66
397.58	1087.20
397.95	1089.66
398.32	1092.12
398.69	1091.72
399.06	1093.66
399.42	1091.25
399.79	1089.50
400.16	1090.81
400.53	1090.57
400.90	1089.96
401.27	1093.94
401.64	1093.36
402.00	1091.23
402.37	1090.92
402.74	1089.17
403.11	1090.32
403.48	1090.34
403.84	1093.71
404.21	1094.60
404.58	1095.51
404.95	1093.03
405.32	1093.03
405.68	1090.36
406.05	1089.07
406.42	1088.54
406.79	1089.92
407.16	1089.71
407.52	1092.28
407.89	1095.00
408.26	1098.51
408.63	1097.13
408.99	1099.70
409.36	1096.78
409.73	1095.82
410.10	1096.87
410.47	1097.78
410.83	1099.07
411.20	1101.15
411.57	1102.60
411.94	1096.19
412.30	1098.65
412.67	1096.87
413.04	1097.31
413.40	1096.33
413.77	1099.61
414.14	1098.51
414.51	1100.03
414.87	1100.10
415.24	1102.13
415.61	1105.67
415.97	1105.18
416.34	1102.56
416.71	1101.64
417.08	1102.23
417.44	1101.55
417.81	1105.34
418.18	1108.83
418.54	1112.39
418.91	1114.70
419.28	1116.65
419.64	1115.05
420.01	1115.52
420.38	1113.95
420.74	1111.19
421.11	1113.14
421.48	1113.86
421.84	1116.44
422.21	1122.78
422.58	1126.83
422.94	1127.39
423.31	1131.93
423.68	1131.91
424.04	1131.32
424.41	1134.06
424.77	1136.73
425.14	1138.58
425.51	1142.74
425.87	1148.88
426.24	1151.71
426.61	1152.08
426.97	1159.90
427.34	1168.70
427.70	1173.94
428.07	1181.85
428.44	1193.35
428.80	1201.42
429.17	1208.84
429.53	1215.81
429.90	1226.30
430.27	1232.92
430.63	1239.22
431.00	1248.11
431.36	1260.96
431.73	1269.18
432.09	1288.98
432.46	1304.45
432.83	1320.06
433.19	1336.02
433.56	1353.79
433.92	1370.15
434.29	1386.67
434.65	1408.25
435.02	1432.38
435.38	1459.89
435.75	1483.57
436.11	1515.43
436.48	1548.52
436.84	1583.54
437.21	1618.78
437.57	1658.34
437.94	1701.69
438.30	1746.25
438.67	1789.83
439.03	1838.65
439.40	1890.87
439.76	1947.86
440.13	2003.03
440.49	2063.37
440.86	2130.94
441.22	2200.22
441.59	2264.05
441.95	2344.19
442.32	2429.69
442.68	2516.45
443.05	2608.32
443.41	2713.17
443.78	2809.11
444.14	2911.51
444.51	3024.86
444.87	3158.16
445.24	3285.81
445.60	3435.18
445.96	3585.65
446.33	3755.55
446.69	3916.09
447.06	4099.26
447.42	4280.23
447.79	4469.72
448.15	4680.14
448.51	4908.67
448.88	5161.61
449.24	5402.33
449.61	5681.49
449.97	5947.23
450.33	6219.32
450.70	6475.72
451.06	6797.27
451.43	7087.68
451.79	7446.70
452.15	7841.47
452.52	8285.19
452.88	8739.42
453.24	9272.64
453.61	9844.25
453.97	10402.09
454.34	10952.19
454.70	11584.53
455.06	12219.47
455.43	12829.60
455.79	13415.04
456.15	14098.68
456.52	14747.41
456.88	15485.08
457.24	16187.03
457.61	17009.54
457.97	17761.83
458.33	18506.01
458.70	19269.02
459.06	20037.79
459.42	20869.39
459.79	21653.96
460.15	22561.92
460.51	23402.55
460.88	24314.82
461.24	25109.36
461.60	26058.66
461.96	26918.13
462.33	27734.83
462.69	28481.72
463.05	29293.91
463.42	29963.73
463.78	30566.34
464.14	31082.62
464.50	31658.84
464.87	32128.00
465.23	32488.34
465.59	32856.89
465.95	33182.78
466.32	33434.39
466.68	33648.38
467.04	33775.52
467.40	33892.43
467.77	34048.62
468.13	34025.00
468.49	33918.55
468.85	33838.67
469.22	33680.31
469.58	33336.32
469.94	33077.20
470.30	32782.29
470.66	32387.75
471.03	31805.26
471.39	31418.84
471.75	30807.23
472.11	30193.40
472.47	29814.45
472.84	29488.25
473.20	29000.22
473.56	28735.93
473.92	28341.13
474.28	27830.42
474.65	27351.22
475.01	26879.77
475.37	26330.58
475.73	25856.60
476.09	25329.14
476.45	24808.95
476.81	24304.26
477.18	23768.96
477.54	23352.30
477.90	23031.74
478.26	22648.03
478.62	22319.33
478.98	22058.07
479.34	21744.19
479.71	21349.78
480.07	21012.58
480.43	20671.92
480.79	20286.36
481.15	19952.39
481.51	19644.87
481.87	19416.92
482.23	19144.76
482.59	18904.27
482.96	18629.14
483.32	18335.12
483.68	17949.85
484.04	17602.79
484.40	17231.91
484.76	16865.41
485.12	16520.32
485.48	16204.82
485.84	15871.10
486.20	15545.21
486.56	15196.82
486.92	14880.38
487.28	14529.18
487.64	14167.82
488.00	13831.77
488.37	13511.75
488.73	13147.16
489.09	12798.28
489.45	12493.78
489.81	12180.03
490.17	11884.91
490.53	11618.07
490.89	11334.25
491.25	11040.66
491.61	10742.29
491.97	10430.69
492.33	10108.70
492.69	9821.00
493.05	9519.78
493.41	9224.94
493.77	8949.39
494.13	8702.46
494.49	8460.85
494.85	8228.95
495.21	8020.57
495.57	7815.31
495.93	7605.80
496.29	7408.12
496.64	7239.11
497.00	7048.57
497.36	6855.50
497.72	6670.01
498.08	6488.55
498.44	6305.50
498.80	6149.20
499.16	5995.21
499.52	5857.24
499.88	5738.62
500.24	5618.78
500.60	5487.60
500.96	5380.73
501.32	5260.52
501.68	5130.45
502.03	4999.71
502.39	4880.49
502.75	4743.21
503.11	4624.34
503.47	4509.04
503.83	4391.27
504.19	4272.76
504.55	4170.69
504.91	4071.53
505.26	3981.86
505.62	3901.32
505.98	3815.92
506.34	3727.98
506.70	3638.88
507.06	3552.37
507.42	3471.46
507.78	3400.52
508.13	3321.78
508.49	3250.75
508.85	3176.36
509.21	3102.87
509.57	3033.76
509.93	2974.96
510.28	2909.12
510.64	2843.33
511.00	2782.94
511.36	2728.48
511.72	2671.74
512.07	2624.51
512.43	2579.60
512.79	2528.81
513.15	2481.95
513.51	2435.75
513.86	2384.19
514.22	2341.92
514.58	2307.77
514.94	2267.09
515.30	2232.38
515.65	2201.55
516.01	2172.27
516.37	2142.88
516.73	2115.54
517.08	2090.43
517.44	2062.62
517.80	2032.59
518.16	2002.61
518.51	1974.10
518.87	1941.01
519.23	1911.54
519.59	1887.78
519.94	1862.74
520.30	1844.86
520.66	1821.85
521.01	1804.83
521.37	1781.12
521.73	1757.93
522.09	1738.36
522.44	1720.72
522.80	1702.04
523.16	1683.48
523.51	1663.84
523.87	1639.48
524.23	1619.30
524.58	1597.70
524.94	1581.31
525.30	1568.63
525.65	1553.23
526.01	1541.90
526.37	1528.25
526.72	1513.48
527.08	1500.05
527.44	1487.62
527.79	1471.99
528.15	1459.37
528.51	1449.14
528.86	1434.75
529.22	1421.50
529.58	1411.25
529.93	1399.59
530.29	1391.26
530.65	1385.85
531.00	1377.78
531.36	1367.41
531.71	1359.90
532.07	1350.82
532.43	1338.88
532.78	1332.51
533.14	1326.64
533.49	1319.92
533.85	1311.19
534.21	1302.95
534.56	1297.92
534.92	1293.75
535.27	1288.98
535.63	1285.73
535.98	1281.70
536.34	1275.94
536.69	1270.54
537.05	1264.38
537.41	1260.12
537.76	1256.87
538.12	1248.00
538.47	1241.58
538.83	1237.65
539.18	1230.58
539.54	1225.46
539.89	1224.64
540.25	1219.11
540.60	1212.35
540.96	1208.65
541.31	1208.35
541.67	1205.61
542.02	1208.96
542.38	1207.97
542.73	1205.77
543.09	1198.33
543.44	1193.04
543.80	1187.85
544.15	1183.35
544.51	1179.84
544.86	1180.80
545.22	1181.15
545.57	1179.02
545.93	1179.72
546.28	1179.23
546.64	1171.63
546.99	1165.24
547.35	1160.04
547.70	1155.78
548.05	1154.05
548.41	1154.52
548.76	1155.17
549.12	1151.82
549.47	1149.16
549.83	1147.24
550.18	1143.68
550.53	1139.89
550.89	1138.02
551.24	1138.60
551.60	1136.31
551.95	1138.27
552.30	1137.83
552.66	1141.53
553.01	1140.36
553.37	1139.93
553.72	1136.68
554.07	1137.55
554.43	1134.41
554.78	1132.94
555.13	1129.64
555.49	1127.55
555.84	1124.09
556.19	1122.15
556.55	1121.33
556.90	1122.59
557.26	1123.67
557.61	1124.96
557.96	1123.76
558.32	1125.47
558.67	1126.06
559.02	1124.63
559.37	1124.96
559.73	1123.53
560.08	1118.42
560.43	1113.18
560.79	1116.41
561.14	1114.73
561.49	1113.09
561.85	1112.50
562.20	1109.67
562.55	1107.05
562.90	1103.98
563.26	1106.44
563.61	1105.13
563.96	1108.92
564.32	1108.22
564.67	1108.99
565.02	1106.44
565.37	1107.85
565.73	1104.41
566.08	1102.35
566.43	1102.18
566.78	1103.26
567.14	1102.39
567.49	1103.14
567.84	1101.95
568.19	1100.26
568.54	1097.73
568.90	1099.58
569.25	1101.32
569.60	1100.73
569.95	1102.72
570.31	1104.29
570.66	1100.75
571.01	1099.84
571.36	1102.11
571.71	1101.27
572.06	1102.30
572.42	1103.14
572.77	1100.78
573.12	1099.93
573.47	1099.84
573.82	1096.00
574.18	1096.80
574.53	1097.88
574.88	1098.20
575.23	1095.04
575.58	1095.75
575.93	1093.29
576.28	1092.96
576.64	1093.66
576.99	1093.92
577.34	1092.02
577.69	1094.57
578.04	1095.72
578.39	1094.93
578.74	1092.07
579.09	1094.79
579.44	1092.19
579.80	1090.01
580.15	1089.36
580.50	1093.80
580.85	1092.77
581.20	1093.99
581.55	1093.24
581.90	1091.09
582.25	1087.46
582.60	1085.77
582.95	1084.23
583.30	1087.13
583.65	1087.67
584.00	1089.61
584.35	1088.49
584.71	1088.14
585.06	1085.61
585.41	1085.89
585.76	1085.26
586.11	1089.10
586.46	1091.16
586.81	1092.37
587.16	1092.66
587.51	1093.78
587.86	1095.93
588.21	1093.10
588.56	1092.77
588.91	1094.67
589.26	1095.25
589.61	1091.16
589.96	1093.57
590.31	1092.23
590.66	1089.38
591.01	1086.97
591.36	1088.42
591.71	1085.28
592.06	1086.92
592.41	1084.98
592.76	1083.81
593.10	1082.52
593.45	1084.30
593.80	1081.05
594.15	1081.07
594.50	1080.11
594.85	1078.31
595.20	1079.60
595.55	1083.81
595.90	1086.36
596.25	1089.19
596.60	1091.95
596.95	1091.74
597.30	1090.78
597.64	1101.18
597.99	1102.98
598.34	1101.43
598.69	1103.49
599.04	1101.78
599.39	1089.68
599.74	1086.45
600.09	1090.41
600.44	1088.00
600.78	1089.82
601.13	1088.82
601.48	1089.31
601.83	1085.54
602.18	1082.45
602.53	1079.83
602.88	1082.52
603.22	1084.04
603.57	1086.36
603.92	1086.50
604.27	1087.44
604.62	1087.55
604.97	1085.91
605.31	1085.94
605.66	1086.15
606.01	1084.51
606.36	1081.47
606.71	1081.80
607.05	1078.99
607.40	1080.37
607.75	1084.21
608.10	1084.00
608.44	1086.13
608.79	1083.06
609.14	1081.73
609.49	1079.88
609.84	1082.94
610.18	1080.34
610.53	1083.22
610.88	1082.97
611.23	1081.87
611.57	1081.44
611.92	1084.53
612.27	1086.97
612.62	1088.68
612.96	1092.40
613.31	1092.63
613.66	1091.51
614.00	1090.62
614.35	1092.77
614.70	1091.13
615.05	1088.96
615.39	1087.60
615.74	1087.60
616.09	1085.28
616.43	1083.36
616.78	1083.81
617.13	1084.91
617.47	1082.78
617.82	1083.04
618.17	1082.64
618.51	1086.13
618.86	1085.56
619.21	1085.66
619.55	1083.88
619.90	1080.58
620.25	1076.97
620.59	1075.94
620.94	1078.24
621.29	1080.44
621.63	1083.55
621.98	1086.08
622.32	1086.64
622.67	1083.39
623.02	1085.10
623.36	1085.59
623.71	1083.41
624.05	1085.96
624.40	1088.23
624.75	1084.81
625.09	1086.57
625.44	1087.23
625.78	1084.09
626.13	1083.22
626.48	1084.86
626.82	1082.71
627.17	1082.17
627.51	1083.86
627.86	1083.29
628.20	1081.35
628.55	1079.17
628.89	1077.21
629.24	1076.34
629.58	1077.14
629.93	1079.74
630.28	1083.08
630.62	1085.05
630.97	1083.25
631.31	1082.50
631.66	1077.89
632.00	1075.36
632.35	1075.27
632.69	1075.50
633.04	1076.06
633.38	1081.61
633.73	1084.53
634.07	1082.59
634.42	1082.43
634.76	1080.53
635.11	1077.02
635.45	1073.16
635.79	1075.45
636.14	1076.13
636.48	1082.36
636.83	1081.73
637.17	1084.51
637.52	1086.92
637.86	1089.38
638.21	1085.66
638.55	1087.72
638.89	1086.50
639.24	1086.08
639.58	1084.32
639.93	1086.76
640.27	1083.41
640.61	1085.17
640.96	1083.93
641.30	1085.17
641.65	1083.76
641.99	1085.40
642.33	1085.52
642.68	1088.21
643.02	1089.82
643.37	1089.75
643.71	1091.63
644.05	1087.90
644.40	1086.06
644.74	1085.66
645.08	1082.50
645.43	1080.63
645.77	1086.15
646.11	1082.43
646.46	1079.08
646.80	1084.70
647.14	1088.79
647.49	1086.64
647.83	1089.22
648.17	1090.55
648.52	1086.62
648.86	1082.12
649.20	1080.84
649.55	1082.03
649.89	1080.25
650.23	1082.10
650.57	1082.29
650.92	1086.15
651.26	1081.98
651.60	1084.70
651.95	1083.29
652.29	1084.86
652.63	1081.09
652.97	1084.35
653.32	1082.66
653.66	1080.37
654.00	1078.03
654.34	1078.94
654.69	1079.01
655.03	1078.17
655.37	1078.24
655.71	1081.12
656.05	1081.09
656.40	1077.07
656.74	1079.06
657.08	1080.79
657.42	1080.27
657.76	1078.66
658.11	1083.95
658.45	1081.63
658.79	1081.47
659.13	1079.48
659.47	1079.50
659.82	1078.96
660.16	1081.80
660.50	1082.43
660.84	1080.65
661.18	1084.56
661.52	1083.18
661.87	1083.69
662.21	1081.96
662.55	1085.59
662.89	1084.60
663.23	1082.38
663.57	1082.73
663.91	1086.45
664.25	1085.91
664.60	1083.64
664.94	1084.79
665.28	1081.63
665.62	1079.36
665.96	1079.55
666.30	1077.18
666.64	1077.56
666.98	1077.77
667.32	1076.01
667.66	1074.42
668.01	1078.71
668.35	1079.97
668.69	1078.64
669.03	1080.91
669.37	1083.18
669.71	1079.06
670.05	1076.25
670.39	1080.06
670.73	1080.56
671.07	1082.90
671.41	1082.26
671.75	1081.73
672.09	1078.50
672.43	1078.64
672.77	1076.72
673.11	1079.10
673.45	1082.50
673.79	1084.60
674.13	1084.32
674.47	1082.24
674.81	1085.12
675.15	1082.26
675.49	1082.50
675.83	1082.08
676.17	1084.00
676.51	1082.66
676.85	1083.97
677.19	1083.46
677.53	1083.41
677.87	1083.76
678.21	1084.14
678.55	1082.47
678.89	1082.22
679.23	1084.02
679.57	1081.09
679.90	1080.79
680.24	1087.65
680.58	1088.30
680.92	1086.73
681.26	1088.56
681.60	1088.63
681.94	1084.63
682.28	1082.40
682.62	1083.50
682.96	1083.22
683.29	1080.25
683.63	1077.35
683.97	1078.31
684.31	1075.43
684.65	1072.85
684.99	1075.97
685.33	1077.40
685.67	1076.93
686.00	1078.71
686.34	1080.34
686.68	1078.73
687.02	1082.47
687.36	1083.55
687.70	1082.03
688.03	1082.15
688.37	1078.73
688.71	1074.96
689.05	1074.26
689.39	1075.97
689.72	1072.48
690.06	1074.77
690.40	1074.52
690.74	1072.55
691.08	1069.41
691.41	1075.55
691.75	1074.89
692.09	1077.86
692.43	1078.71
692.76	1081.70
693.10	1078.00
693.44	1078.66
693.78	1075.05
694.11	1074.00
694.45	1072.11
694.79	1072.48
695.13	1072.06
695.46	1073.00
695.80	1076.88
696.14	1078.38
696.48	1081.77
696.81	1085.68
697.15	1085.03
697.49	1082.05
697.82	1080.63
698.16	1080.56
698.50	1080.41
698.83	1080.25
699.17	1081.33
699.51	1082.54
699.84	1080.37
700.18	1079.57
700.52	1082.80
700.85	1083.39
701.19	1083.97
701.53	1086.45
701.86	1086.15
702.20	1088.33
702.54	1087.90
702.87	1090.24
703.21	1085.56
703.55	1084.28
703.88	1080.58
704.22	1082.08
704.55	1078.64
704.89	1079.08
705.23	1076.25
705.56	1077.77
705.90	1078.73
706.23	1080.95
706.57	1084.09
706.91	1083.93
707.24	1081.54
707.58	1081.19
707.91	1078.85
708.25	1077.96
708.58	1080.39
708.92	1082.08
709.26	1081.00
709.59	1081.70
709.93	1082.57
710.26	1084.79
710.60	1083.97
710.93	1082.85
711.27	1082.52
711.60	1084.42
711.94	1084.11
712.27	1084.21
712.61	1086.59
712.94	1087.48
713.28	1087.13
713.61	1085.82
713.95	1089.54
714.28	1087.46
714.62	1085.91
714.95	1085.42
715.29	1085.07
715.62	1082.83
715.96	1083.69
716.29	1090.08
716.63	1089.50
716.96	1091.93
717.29	1092.28
717.63	1092.33
717.96	1084.91
718.30	1084.51
718.63	1082.01
718.97	1078.50
719.30	1077.82
719.63	1077.42
719.97	1075.52
720.30	1075.08
720.64	1076.95
720.97	1075.66
721.30	1076.34
721.64	1075.20
721.97	1076.27
722.31	1075.29
722.64	1078.05
722.97	1079.60
723.31	1079.01
723.64	1079.41
723.97	1078.50
724.31	1079.15
724.64	1079.29
724.98	1082.61
725.31	1083.50
725.64	1081.49
725.98	1079.46
726.31	1081.12
726.64	1082.17
726.97	1081.16
727.31	1083.08
727.64	1083.01
727.97	1083.60
728.31	1082.43
728.64	1078.66
728.97	1080.98
729.31	1082.64
729.64	1078.85
729.97	1078.73
730.30	1082.94
730.64	1082.50
730.97	1083.95
731.30	1087.44
731.63	1087.46
731.97	1086.34
732.30	1084.42
732.63	1079.97
732.96	1080.02
733.30	1080.41
733.63	1082.92
733.96	1083.74
734.29	1085.94
734.63	1085.21
734.96	1084.07
735.29	1082.87
735.62	1083.39
735.95	1082.99
736.29	1079.50
736.62	1079.13
736.95	1078.75
737.28	1078.54
737.61	1078.33
737.94	1079.85
738.28	1080.06
738.61	1078.19
738.94	1077.56
739.27	1079.29
739.60	1081.16
739.93	1082.40
740.27	1081.63
740.60	1084.25
740.93	1082.05
741.26	1079.15
741.59	1074.70
741.92	1076.90
742.25	1072.34
742.58	1074.87
742.91	1076.65
743.25	1080.67
743.58	1081.37
743.91	1086.24
744.24	1083.41
744.57	1080.39
744.90	1079.41
745.23	1079.74
745.56	1079.88
745.89	1077.79
746.22	1079.48
746.55	1080.02
746.88	1077.93
747.21	1073.28
747.54	1074.47
747.87	1075.43
748.20	1074.47
748.53	1075.69
748.87	1077.75
749.20	1078.68
749.53	1077.28
749.86	1075.83
750.19	1073.09
750.52	1072.60
750.85	1068.01
751.18	1069.11
751.51	1071.08
751.84	1072.22
752.16	1071.19
752.49	1073.74
752.82	1075.71
753.15	1076.79
753.48	1080.41
753.81	1083.18
754.14	1084.91
754.47	1082.17
754.80	1079.78
755.13	1074.05
755.46	1073.46
755.79	1077.89
756.12	1077.93
756.45	1080.67
756.78	1081.96
757.11	1082.71
757.43	1078.14
757.76	1080.98
758.09	1080.74
758.42	1083.64
758.75	1080.53
759.08	1079.50
759.41	1077.23
759.74	1076.51
760.07	1072.90
760.39	1076.69
760.72	1077.16
761.05	1074.35
761.38	1071.40
761.71	1073.07
762.04	1070.51
762.36	1070.16
762.69	1074.28
763.02	1075.36
763.35	1076.11
763.68	1077.77
764.01	1079.83
764.33	1080.18
764.66	1081.21
764.99	1081.82
765.32	1080.77
765.65	1079.06
765.97	1074.26
766.30	1074.82
766.63	1075.69
766.96	1076.44
767.28	1079.08
767.61	1081.26
767.94	1080.46
768.27	1078.28
768.59	1078.21
768.92	1078.40
769.25	1079.55
769.58	1080.60
769.90	1083.76
770.23	1082.71
770.56	1084.67
770.89	1085.19
771.21	1088.16
771.54	1086.83
771.87	1087.30
772.19	1084.84
772.52	1083.62
772.85	1081.54
773.17	1078.14
773.50	1077.63
773.83	1079.22
774.15	1078.47
774.48	1075.64
774.81	1078.80
775.13	1078.66
775.46	1075.34
775.79	1075.08
776.11	1078.31
776.44	1076.30
776.77	1074.35
777.09	1075.64
777.42	1078.57
777.74	1078.12
778.07	1079.57
778.40	1082.31
778.72	1080.70
779.05	1073.93
779.37	1069.79
779.70	1066.65
780.03	1064.31
780.35	1063.96
780.68	1068.45
781.00	1072.39
781.33	1073.44
781.65	1075.03
781.98	1078.38
782.31	1079.34
782.63	1080.27
782.96	1079.48
783.28	1083.86
783.61	1079.60
783.93	1079.20
784.26	1079.76
784.58	1081.87
784.91	1078.47
785.23	1078.87
785.56	1078.36
785.88	1076.39
786.21	1075.22
786.53	1075.64
786.86	1078.12
787.18	1077.65
787.51	1077.51
787.83	1080.20
788.16	1077.61
788.48	1076.23
788.81	1075.55
789.13	1075.36
789.46	1075.20
789.78	1075.43
790.10	1077.44
790.43	1079.48
790.75	1078.78
791.08	1077.96
791.40	1080.44
791.73	1079.10
792.05	1078.64
792.37	1078.47
792.70	1078.82
793.02	1078.47
793.35	1078.40
793.67	1077.23
793.99	1079.43
794.32	1077.40
794.64	1077.02
794.96	1076.88
795.29	1080.13
795.61	1075.83
795.93	1077.14
796.26	1077.42
796.58	1079.38
796.91	1078.12
797.23	1078.61
797.55	1084.04
797.87	1083.11
798.20	1080.74
798.52	1082.61
798.84	1081.91
799.17	1076.81
799.49	1077.02
799.81	1079.85
800.14	1078.61
800.46	1083.86
800.78	1084.56
801.10	1083.46
801.43	1079.64
801.75	1079.27
802.07	1075.64
802.40	1073.88
802.72	1072.97
803.04	1076.88
803.36	1078.87
803.69	1081.09
804.01	1080.86
804.33	1080.95
804.65	1077.07
804.97	1076.08
805.30	1072.04
805.62	1072.55
805.94	1071.82
806.26	1072.20
806.58	1074.00
806.91	1075.80
807.23	1078.05
807.55	1081.00
807.87	1083.53
808.19	1077.96
808.52	1079.92
808.84	1077.44
809.16	1075.99
809.48	1071.29
809.80	1071.31
810.12	1070.00
810.44	1070.63
810.77	1073.42
811.09	1077.35
811.41	1079.22
811.73	1080.11
812.05	1082.57
812.37	1080.74
812.69	1079.06
813.01	1075.20
813.33	1074.17
813.66	1072.78
813.98	1071.43
814.30	1075.24
814.62	1076.67
814.94	1077.23
815.26	1076.81
815.58	1078.26
815.90	1076.25
816.22	1078.61
816.54	1076.55
816.86	1078.61
817.18	1080.02
817.50	1078.45
817.82	1080.13
818.14	1079.95
818.46	1075.34
818.78	1076.53
819.10	1075.50
819.42	1073.60
819.74	1075.99
820.06	1079.10
820.38	1076.01
820.70	1078.03
821.02	1078.38
821.34	1079.97
821.66	1080.79
821.98	1082.43
822.30	1080.63
822.62	1081.61
822.94	1081.19
823.26	1081.05
823.58	1079.99
823.90	1081.75
824.22	1081.66
824.54	1079.64
824.86	1078.61
825.18	1079.24
825.50	1075.97
825.81	1074.47
826.13	1075.83
826.45	1074.24
826.77	1075.22
827.09	1081.07
827.41	1083.97
827.73	1081.05
828.05	1080.70
828.36	1080.79
828.68	1076.13
829.00	1075.20
829.32	1077.14
829.64	1077.37
829.96	1071.68
830.28	1074.21
830.59	1071.47
830.91	1075.08
831.23	1075.94
831.55	1083.50
831.87	1080.81
832.19	1084.32
832.50	1081.44
832.82	1084.93
833.14	1080.27
833.46	1081.21
833.78	1082.69
834.09	1083.20
834.41	1080.23
834.73	1079.64
835.05	1078.59
835.36	1073.07
835.68	1071.03
836.00	1070.35
836.32	1073.07
836.63	1075.90
836.95	1080.72
837.27	1082.69
837.59	1083.57
837.90	1081.16
838.22	1081.26
838.54	1077.79
838.85	1076.51
839.17	1077.33
839.49	1078.40
839.80	1075.36
840.12	1077.84
840.44	1079.17
840.76	1075.59
841.07	1073.46
841.39	1073.16
841.71	1072.81
842.02	1072.43
842.34	1075.15
842.65	1078.99
842.97	1084.53
843.29	1082.29
843.60	1084.21
843.92	1081.12
844.24	1081.42
844.55	1076.62
844.87	1078.10
845.18	1077.63
845.50	1080.86
845.82	1079.27
846.13	1081.02
846.45	1079.60
846.76	1079.48
847.08	1076.72
847.40	1075.55
847.71	1074.98
848.03	1072.48
848.34	1069.79
848.66	1071.01
848.97	1072.25
849.29	1074.24
849.60	1078.87
849.92	1078.59
850.24	1080.63
850.55	1079.81
850.87	1076.25
851.18	1075.57
851.50	1077.21
851.81	1076.08
852.13	1076.32
852.44	1075.80
852.76	1077.07
853.07	1074.45
853.39	1075.85
853.70	1074.80
854.01	1077.02
854.33	1073.79
854.64	1073.56
854.96	1068.97
855.27	1071.52
855.59	1071.80
855.90	1070.58
856.22	1073.65
856.53	1075.22
856.84	1074.45
857.16	1074.24
857.47	1078.45
857.79	1079.46
858.10	1081.42
858.41	1078.07
858.73	1079.15
859.04	1078.40
859.36	1075.73
859.67	1075.20
859.98	1077.42
860.30	1077.61
860.61	1074.98
860.92	1075.17
861.24	1072.95
861.55	1075.20
861.87	1072.06
862.18	1070.05
862.49	1072.41
862.81	1075.17
863.12	1072.32
863.43	1073.46
863.74	1077.00
864.06	1077.35
864.37	1077.44
864.68	1077.58
865.00	1076.23
865.31	1078.80
865.62	1078.24
865.94	1077.75
866.25	1077.98
866.56	1079.71
866.87	1075.62
867.19	1070.77
867.50	1071.19
867.81	1072.62
868.12	1069.72
868.44	1068.22
868.75	1071.75
869.06	1072.20
869.37	1073.11
869.68	1076.69
870.00	1079.97
870.31	1078.47
870.62	1078.54
870.93	1076.20
871.24	1077.47
871.56	1078.94
871.87	1082.38
872.18	1079.99
872.49	1082.69
872.80	1082.64
873.12	1081.89
873.43	1078.26
873.74	1081.19
874.05	1078.61
874.36	1076.27
874.67	1074.07
874.98	1075.20
875.29	1077.23
875.61	1078.80
875.92	1080.39
876.23	1080.04
876.54	1079.57
876.85	1076.44
877.16	1073.60
877.47	1074.59
877.78	1075.13
878.09	1076.95
878.40	1076.39
878.72	1079.76
879.03	1081.23
879.34	1082.71
879.65	1085.24
879.96	1087.34
880.27	1085.40
880.58	1079.48
880.89	1080.58
881.20	1073.72
881.51	1073.21
881.82	1075.22
882.13	1078.94
882.44	1077.70
882.75	1082.76
883.06	1082.05
883.37	1081.33
883.68	1079.78
883.99	1079.22
884.30	1076.48
884.61	1075.64
884.92	1073.84
885.23	1075.22
885.54	1075.38
885.85	1077.54
886.16	1079.38
886.47	1082.71
886.78	1081.26
887.08	1080.91
887.39	1080.39
887.70	1079.48
888.01	1075.66
888.32	1073.32
888.63	1075.27
888.94	1077.09
889.25	1075.92
889.56	1077.63
889.87	1077.40
890.17	1073.74
890.48	1072.27
890.79	1072.95
891.10	1073.02
891.41	1076.18
891.72	1075.50
892.03	1074.47
892.34	1073.84
892.64	1075.62
892.95	1076.27
893.26	1079.41
893.57	1078.80
893.88	1078.00
894.18	1072.78
894.49	1069.95
894.80	1074.35
895.11	1074.19
895.42	1074.38
895.72	1077.23
896.03	1079.69
896.34	1076.08
896.65	1078.14
896.96	1076.11
897.26	1075.97
897.57	1077.91
897.88	1079.69
898.19	1078.36
898.49	1083.18
898.80	1085.07
899.11	1084.60
899.41	1078.50
899.72	1081.70
900.03	1082.99
900.34	1081.12
900.64	1079.99
900.95	1081.75
901.26	1077.89
901.56	1073.28
901.87	1072.90
902.18	1072.62
902.48	1073.49
902.79	1075.36
903.10	1077.42
903.40	1081.89
903.71	1082.05
904.02	1080.74
904.32	1077.82
904.63	1078.82
904.94	1077.51
905.24	1075.41
905.55	1079.64
905.85	1079.48
906.16	1079.90
906.47	1077.21
906.77	1079.67
907.08	1079.46
907.38	1080.18
907.69	1078.21
908.00	1079.97
908.30	1079.41
908.61	1076.76
908.91	1075.69
909.22	1073.53
909.52	1073.32
909.83	1075.41
910.14	1076.34
910.44	1081.09
910.75	1082.36
911.05	1081.40
911.36	1078.45
911.66	1077.54
911.97	1073.11
912.27	1072.55
912.58	1073.14
912.88	1071.43
913.19	1069.58
913.49	1071.75
913.80	1071.75
914.10	1074.26
914.41	1076.60
914.71	1081.05
915.01	1082.76
915.32	1085.28
915.62	1081.56
915.93	1083.95
916.23	1081.28
916.54	1079.55
916.84	1078.21
917.15	1078.71
917.45	1076.69
917.75	1077.02
918.06	1076.79
918.36	1073.58
918.67	1073.46
918.97	1075.17
919.27	1075.13
919.58	1076.60
919.88	1077.56
920.18	1078.31
920.49	1077.93
920.79	1078.31
921.10	1077.72
921.40	1078.50
921.70	1079.24
922.01	1076.88
922.31	1076.44
922.61	1073.67
922.92	1076.01
923.22	1074.45
923.52	1073.70
923.82	1073.63
924.13	1076.53
924.43	1075.62
924.73	1075.38
925.04	1078.52
925.34	1077.96
925.64	1076.74
925.94	1076.69
926.25	1078.12
926.55	1075.13
926.85	1074.80
927.15	1072.95
927.46	1072.29
927.76	1073.46
928.06	1075.27
928.36	1074.12
928.67	1075.62
928.97	1078.21
929.27	1073.77
929.57	1072.04
929.87	1076.88
930.18	1075.94
930.48	1076.25
930.78	1076.81
931.08	1077.30
931.38	1075.57
931.69	1077.89
931.99	1077.21
932.29	1080.53
932.59	1079.53
932.89	1077.63
933.19	1075.08
933.49	1075.17
933.80	1074.52
934.10	1071.73
934.40	1074.33
934.70	1077.63
935.00	1076.01
935.30	1075.22
935.60	1076.15
935.90	1074.59
936.20	1073.28
936.50	1071.94
936.81	1071.78
937.11	1073.60
937.41	1075.27
937.71	1078.33
938.01	1078.71
938.31	1079.76
938.61	1081.14
938.91	1080.16
939.21	1079.31
939.51	1079.03
939.81	1081.40
940.11	1081.19
940.41	1079.41
940.71	1078.07
941.01	1078.43
941.31	1073.65
941.61	1076.08
941.91	1078.33
942.21	1077.00
942.51	1079.31
942.81	1080.63
943.11	1082.31
943.41	1079.95
943.71	1081.51
944.01	1081.09
944.31	1081.07
944.61	1075.76
944.90	1077.35
945.20	1077.93
945.50	1074.77
945.80	1073.70
946.10	1074.89
946.40	1074.24
946.70	1074.61
947.00	1080.32
947.30	1081.49
947.60	1081.82
947.89	1082.38
948.19	1080.95
948.49	1076.25
948.79	1073.91
949.09	1075.01
949.39	1075.05
949.69	1069.58
949.98	1070.35
950.28	1076.20
950.58	1076.53
950.88	1076.41
951.18	1082.17
951.48	1083.32
951.77	1082.43
952.07	1080.72
952.37	1080.37
952.67	1077.75
952.97	1078.33
953.26	1077.65
953.56	1080.88
953.86	1081.84
954.16	1082.57
954.45	1078.85
954.75	1076.97
955.05	1072.69
955.35	1070.49
955.64	1073.56
955.94	1076.04
956.24	1073.67
956.54	1075.52
956.83	1074.82
957.13	1072.25
957.43	1072.83
957.72	1074.63
958.02	1072.46
958.32	1075.29
958.61	1075.15
958.91	1073.04
959.21	1072.83
959.50	1074.03
959.80	1075.92
960.10	1076.41
960.39	1076.27
960.69	1077.18
960.99	1076.01
961.28	1075.03
961.58	1076.53
961.87	1076.65
962.17	1074.17
962.47	1075.69
962.76	1071.90
963.06	1071.87
963.36	1071.97
963.65	1073.42
963.95	1071.71
964.24	1073.56
964.54	1073.32
964.83	1074.73
965.13	1072.67
965.42	1075.59
965.72	1074.24
966.02	1073.53
966.31	1073.72
966.61	1077.33
966.90	1075.69
967.20	1080.18
967.49	1077.84
967.79	1081.63
968.08	1081.02
968.38	1082.17
968.67	1078.19
968.97	1078.89
969.26	1075.52
969.56	1076.93
969.85	1078.12
970.15	1078.61
970.44	1078.40
970.74	1078.57
971.03	1075.10
971.32	1074.45
971.62	1074.35
971.91	1073.44
972.21	1073.02
972.50	1075.38
972.80	1074.49
973.09	1075.03
973.38	1079.34
973.68	1082.01
973.97	1082.15
974.27	1081.42
974.56	1081.51
974.85	1079.67
975.15	1076.27
975.44	1075.13
975.73	1076.04
976.03	1077.23
976.32	1078.28
976.61	1077.56
976.91	1077.16
977.20	1079.53
977.49	1080.65
977.79	1080.53
978.08	1082.90
978.37	1083.95
978.67	1080.58
978.96	1080.46
979.25	1080.58
979.55	1082.03
979.84	1083.06
980.13	1082.71
980.42	1080.46
980.72	1080.48
981.01	1077.18
981.30	1075.66
981.59	1077.56
981.89	1079.83
982.18	1078.64
982.47	1079.97
982.76	1078.82
983.06	1077.98
983.35	1075.24
983.64	1071.54
983.93	1071.71
984.22	1074.19
984.52	1073.00
984.81	1075.48
985.10	1078.96
985.39	1077.11
985.68	1078.52
985.97	1078.52
986.27	1077.07
986.56	1077.00
986.85	1077.40
987.14	1078.31
987.43	1077.33
987.72	1078.33
988.01	1076.88
988.31	1077.79
988.60	1070.42
988.89	1073.00
989.18	1070.49
989.47	1069.58
989.76	1069.46
990.05	1073.18
990.34	1073.84
990.63	1073.35
990.92	1076.88
991.21	1079.46
991.51	1080.02
991.80	1078.10
992.09	1081.44
992.38	1080.79
992.67	1080.41
992.96	1081.87
993.25	1082.43
993.54	1081.47
993.83	1082.40
994.12	1079.13
994.41	1078.66
994.70	1078.80
994.99	1078.38
995.28	1078.73
995.57	1080.67
995.86	1079.76
996.15	1079.78
996.44	1077.00
996.73	1074.70
997.02	1076.74
997.31	1077.30
997.59	1076.81
997.88	1079.20
998.17	1080.56
998.46	1077.14
998.75	1077.25
999.04	1077.42
999.33	1075.64
999.62	1072.85
999.91	1072.18
1000.20	1072.46
1000.49	1073.93
1000.77	1079.13
1001.06	1083.71
1001.35	1082.19
1001.64	1081.40
1001.93	1078.80
1002.22	1077.21
1002.51	1075.38
1002.79	1077.77
1003.08	1078.38
1003.37	1080.16
1003.66	1077.40
1003.95	1076.53
1004.23	1078.33
1004.52	1080.79
1004.81	1078.68
1005.10	1080.25
1005.39	1079.71
1005.67	1078.43
1005.96	1073.67
1006.25	1076.65
1006.54	1076.20
1006.83	1078.71
1007.11	1079.67
1007.40	1082.12
1007.69	1083.71
1007.97	1084.35
1008.26	1083.27
1008.55	1083.79
1008.84	1083.08
1009.12	1082.24
1009.41	1081.26
1009.70	1079.85
1009.98	1076.67
1010.27	1076.81
1010.56	1075.52
1010.85	1074.82
1011.13	1078.07
1011.42	1078.96
1011.71	1078.47
1011.99	1080.91
1012.28	1082.26
1012.56	1081.84
1012.85	1080.91
1013.14	1082.40
1013.42	1080.51
1013.71	1078.54
1014.00	1074.07
1014.28	1078.00
1014.57	1077.68
1014.85	1077.89
1015.14	1082.22
1015.43	1084.09
1015.71	1085.21
1016.00	1083.29
1016.28	1082.85
1016.57	1079.17
1016.85	1078.47
1017.14	1077.21
1017.43	1077.09
1017.71	1076.79
1018.00	1078.96
1018.28	1080.32
1018.57	1078.47
1018.85	1080.86
1019.14	1080.04
1019.42	1077.86
1019.71	1078.75
1019.99	1079.81
1020.28	1078.50
1020.56	1078.03
1020.85	1076.83
1021.13	1074.21
1021.42	1071.15
1021.70	1070.49
1021.99	1071.54
1022.27	1071.94
1022.55	1077.93
1022.84	1068.22
>>>>>End Processed Spectral Data<<<<<
