SpectraSuite Data File
++++++++++++++++++++++++++++++++++++
Date: Mon Aug 26 10:22:15 PDT 2019
User: corrico
Dark Spectrum Present: No
Reference Spectrum Present: No
Number of Sampled Component Spectra: 1
Spectrometers: USB2+H06089
Integration Time (usec): 2000 (USB2+H06089)
Spectra Averaged: 20 (USB2+H06089)
Boxcar Smoothing: 2 (USB2+H06089)
Correct for Electrical Dark: No (USB2+H06089)
Strobe/Lamp Enabled: No (USB2+H06089)
Correct for Detector Non-linearity: No (USB2+H06089)
Correct for Stray Light: No (USB2+H06089)
Number of Pixels in Processed Spectrum: 2048
>>>>>Begin Processed Spectral Data<<<<<
339.70	1032.41
340.07	1032.41
340.45	993.37
340.82	971.04
341.19	946.72
341.57	921.84
341.94	913.51
342.31	906.49
342.69	904.01
343.06	898.41
343.43	892.33
343.81	892.00
344.18	894.76
344.55	894.72
344.93	899.00
345.30	908.36
345.67	913.32
346.04	922.17
346.42	930.53
346.79	941.39
347.16	951.08
347.54	960.56
347.91	968.33
348.28	977.34
348.65	986.96
349.03	996.53
349.40	1009.31
349.77	1019.54
350.14	1028.34
350.52	1034.87
350.89	1041.89
351.26	1045.63
351.63	1050.76
352.01	1055.53
352.38	1058.16
352.75	1061.36
353.12	1064.03
353.50	1067.05
353.87	1071.82
354.24	1078.19
354.61	1078.00
354.98	1081.28
355.36	1080.13
355.73	1080.91
356.10	1083.50
356.47	1085.03
356.84	1084.98
357.22	1084.46
357.59	1081.47
357.96	1077.65
358.33	1080.58
358.70	1079.24
359.08	1083.20
359.45	1082.50
359.82	1084.46
360.19	1080.39
360.56	1080.48
360.94	1077.47
361.31	1077.56
361.68	1074.73
362.05	1074.24
362.42	1074.94
362.79	1074.75
363.16	1074.10
363.54	1074.75
363.91	1076.13
364.28	1071.99
364.65	1073.16
365.02	1073.81
365.39	1073.93
365.76	1073.91
366.14	1075.85
366.51	1072.90
366.88	1072.43
367.25	1071.05
367.62	1069.62
367.99	1071.24
368.36	1073.25
368.73	1074.73
369.10	1074.35
369.48	1074.33
369.85	1072.29
370.22	1070.14
370.59	1070.72
370.96	1070.42
371.33	1069.23
371.70	1071.38
372.07	1074.03
372.44	1075.36
372.81	1076.13
373.18	1077.79
373.55	1077.89
373.93	1076.06
374.30	1073.37
374.67	1073.72
375.04	1076.23
375.41	1073.09
375.78	1077.51
376.15	1078.21
376.52	1079.85
376.89	1078.54
377.26	1078.92
377.63	1078.87
378.00	1077.02
378.37	1076.58
378.74	1076.72
379.11	1075.48
379.48	1075.36
379.85	1077.79
380.22	1078.43
380.59	1077.58
380.96	1085.54
381.33	1085.38
381.70	1087.23
382.07	1085.99
382.44	1086.78
382.81	1083.53
383.18	1083.86
383.55	1083.25
383.92	1083.32
384.29	1082.10
384.66	1080.53
385.03	1078.36
385.40	1079.53
385.77	1079.34
386.14	1080.72
386.51	1081.98
386.88	1081.26
387.25	1079.90
387.62	1081.30
387.99	1081.28
388.36	1080.51
388.73	1082.22
389.10	1084.14
389.46	1081.75
389.83	1081.14
390.20	1078.73
390.57	1077.47
390.94	1077.89
391.31	1083.64
391.68	1086.34
392.05	1091.42
392.42	1091.84
392.79	1089.45
393.16	1086.62
393.53	1086.85
393.89	1087.23
394.26	1087.39
394.63	1089.52
395.00	1090.76
395.37	1092.82
395.74	1090.06
396.11	1092.33
396.48	1088.49
396.84	1088.07
397.21	1087.62
397.58	1088.00
397.95	1089.17
398.32	1088.42
398.69	1090.01
399.06	1089.61
399.42	1089.75
399.79	1086.76
400.16	1088.54
400.53	1086.71
400.90	1083.57
401.27	1082.61
401.64	1082.90
402.00	1084.37
402.37	1083.93
402.74	1089.38
403.11	1090.53
403.48	1091.91
403.84	1088.30
404.21	1089.33
404.58	1084.91
404.95	1085.82
405.32	1083.25
405.68	1086.92
406.05	1086.36
406.42	1086.57
406.79	1084.74
407.16	1089.40
407.52	1091.25
407.89	1091.95
408.26	1094.88
408.63	1096.56
408.99	1096.80
409.36	1091.81
409.73	1093.69
410.10	1090.48
410.47	1091.13
410.83	1090.39
411.20	1094.22
411.57	1095.46
411.94	1097.48
412.30	1098.48
412.67	1098.41
413.04	1098.27
413.40	1095.89
413.77	1094.34
414.14	1093.03
414.51	1093.12
414.87	1093.29
415.24	1095.65
415.61	1096.85
415.97	1100.78
416.34	1103.16
416.71	1103.89
417.08	1102.44
417.44	1105.36
417.81	1105.76
418.18	1105.95
418.54	1108.97
418.91	1109.95
419.28	1109.91
419.64	1104.78
420.01	1107.52
420.38	1105.51
420.74	1109.09
421.11	1114.38
421.48	1121.47
421.84	1122.12
422.21	1125.94
422.58	1124.42
422.94	1126.22
423.31	1126.27
423.68	1125.84
424.04	1129.50
424.41	1135.11
424.77	1137.06
425.14	1140.73
425.51	1144.64
425.87	1146.63
426.24	1150.47
426.61	1151.89
426.97	1157.82
427.34	1164.91
427.70	1175.32
428.07	1179.37
428.44	1186.53
428.80	1192.88
429.17	1201.16
429.53	1208.98
429.90	1224.40
430.27	1238.07
430.63	1253.17
431.00	1264.24
431.36	1276.29
431.73	1284.84
432.09	1293.66
432.46	1304.64
432.83	1324.06
433.19	1339.58
433.56	1358.28
433.92	1380.66
434.29	1406.22
434.65	1424.47
435.02	1449.19
435.38	1478.38
435.75	1508.08
436.11	1538.46
436.48	1573.19
436.84	1605.42
437.21	1640.36
437.57	1675.89
437.94	1715.80
438.30	1760.18
438.67	1809.91
439.03	1857.73
439.40	1915.42
439.76	1973.28
440.13	2034.16
440.49	2094.87
440.86	2168.16
441.22	2242.58
441.59	2313.50
441.95	2401.88
442.32	2493.89
442.68	2590.67
443.05	2685.74
443.41	2794.01
443.78	2888.64
444.14	3003.38
444.51	3114.29
444.87	3257.70
445.24	3398.74
445.60	3556.75
445.96	3705.89
446.33	3879.63
446.69	4038.34
447.06	4223.47
447.42	4408.91
447.79	4609.71
448.15	4836.01
448.51	5074.47
448.88	5347.75
449.24	5601.98
449.61	5895.29
449.97	6174.85
450.33	6466.57
450.70	6729.88
451.06	7064.77
451.43	7375.29
451.79	7744.41
452.15	8163.48
452.52	8637.02
452.88	9125.63
453.24	9683.36
453.61	10287.52
453.97	10873.50
454.34	11419.15
454.70	12065.81
455.06	12710.42
455.43	13345.76
455.79	13932.65
456.15	14654.37
456.52	15324.94
456.88	16110.19
457.24	16842.21
457.61	17723.14
457.97	18529.58
458.33	19333.43
458.70	20126.69
459.06	20904.78
459.42	21743.67
459.79	22539.34
460.15	23468.62
460.51	24326.94
460.88	25279.59
461.24	26106.99
461.60	27077.61
461.96	27965.19
462.33	28839.64
462.69	29674.58
463.05	30596.00
463.42	31381.46
463.78	32066.39
464.14	32649.65
464.50	33260.91
464.87	33685.79
465.23	33988.70
465.59	34328.12
465.95	34607.77
466.32	34855.45
466.68	35106.05
467.04	35259.26
467.40	35423.05
467.77	35602.80
468.13	35565.33
468.49	35467.78
468.85	35418.16
469.22	35238.87
469.58	34868.65
469.94	34615.42
470.30	34290.37
470.66	33841.17
471.03	33234.58
471.39	32848.58
471.75	32210.99
472.11	31626.98
472.47	31270.31
472.84	30964.80
473.20	30476.14
473.56	30201.15
473.92	29751.49
474.28	29213.86
474.65	28701.78
475.01	28238.42
475.37	27692.35
475.73	27249.48
476.09	26759.13
476.45	26244.05
476.81	25711.46
477.18	25136.32
477.54	24657.05
477.90	24272.01
478.26	23817.01
478.62	23437.26
478.98	23131.47
479.34	22781.93
479.71	22311.72
480.07	21936.44
480.43	21564.48
480.79	21159.61
481.15	20799.36
481.51	20492.07
481.87	20227.05
482.23	19927.32
482.59	19665.18
482.96	19380.27
483.32	19081.66
483.68	18709.73
484.04	18366.61
484.40	17976.20
484.76	17585.80
485.12	17205.98
485.48	16879.01
485.84	16528.21
486.20	16183.84
486.56	15810.46
486.92	15492.52
487.28	15142.35
487.64	14770.30
488.00	14436.47
488.37	14116.52
488.73	13755.52
489.09	13383.07
489.45	13070.35
489.81	12746.84
490.17	12433.82
490.53	12141.15
490.89	11839.37
491.25	11528.99
491.61	11211.68
491.97	10887.73
492.33	10550.03
492.69	10243.87
493.05	9933.44
493.41	9641.65
493.77	9371.41
494.13	9117.95
494.49	8871.99
494.85	8620.94
495.21	8386.30
495.57	8155.41
495.93	7930.51
496.29	7716.54
496.64	7532.83
497.00	7335.75
497.36	7139.85
497.72	6950.83
498.08	6756.12
498.44	6565.72
498.80	6391.18
499.16	6220.11
499.52	6059.20
499.88	5933.98
500.24	5803.08
500.60	5677.44
500.96	5558.26
501.32	5447.06
501.68	5317.35
502.03	5190.33
502.39	5062.27
502.75	4931.58
503.11	4793.44
503.47	4667.54
503.83	4537.90
504.19	4412.96
504.55	4305.46
504.91	4209.38
505.26	4112.39
505.62	4030.80
505.98	3944.93
506.34	3851.05
506.70	3753.38
507.06	3662.54
507.42	3572.43
507.78	3494.37
508.13	3418.12
508.49	3345.84
508.85	3273.75
509.21	3206.60
509.57	3136.83
509.93	3067.20
510.28	3006.44
510.64	2942.73
511.00	2874.69
511.36	2814.17
511.72	2757.83
512.07	2700.30
512.43	2649.02
512.79	2599.24
513.15	2552.38
513.51	2505.89
513.86	2460.75
514.22	2418.05
514.58	2376.44
514.94	2334.15
515.30	2301.75
515.65	2264.82
516.01	2232.59
516.37	2201.09
516.73	2169.89
517.08	2134.12
517.44	2100.91
517.80	2066.25
518.16	2033.01
518.51	2006.92
518.87	1976.77
519.23	1947.56
519.59	1925.04
519.94	1904.35
520.30	1878.12
520.66	1851.55
521.01	1832.34
521.37	1805.07
521.73	1783.16
522.09	1759.87
522.44	1740.89
522.80	1719.33
523.16	1703.02
523.51	1684.04
523.87	1667.02
524.23	1650.17
524.58	1632.62
524.94	1612.82
525.30	1592.80
525.65	1576.75
526.01	1562.38
526.37	1547.66
526.72	1533.61
527.08	1522.64
527.44	1505.78
527.79	1493.68
528.15	1486.85
528.51	1475.64
528.86	1463.44
529.22	1454.74
529.58	1442.05
529.93	1424.33
530.29	1409.26
530.65	1396.08
531.00	1388.17
531.36	1375.60
531.71	1366.55
532.07	1361.65
532.43	1354.80
532.78	1346.42
533.14	1340.50
533.49	1332.37
533.85	1323.60
534.21	1316.50
534.56	1307.31
534.92	1304.03
535.27	1295.07
535.63	1288.63
535.98	1284.35
536.34	1279.31
536.69	1268.94
537.05	1268.27
537.41	1266.93
537.76	1261.01
538.12	1255.51
538.47	1249.89
538.83	1243.18
539.18	1236.06
539.54	1230.40
539.89	1229.27
540.25	1226.70
540.60	1222.04
540.96	1218.88
541.31	1217.94
541.67	1213.47
542.02	1213.76
542.38	1211.25
542.73	1207.27
543.09	1202.15
543.44	1195.01
543.80	1189.74
544.15	1189.41
544.51	1188.95
544.86	1189.81
545.22	1189.72
545.57	1189.13
545.93	1185.11
546.28	1182.79
546.64	1174.71
546.99	1172.23
547.35	1165.94
547.70	1165.40
548.05	1162.90
548.41	1165.80
548.76	1162.26
549.12	1163.57
549.47	1158.07
549.83	1150.51
550.18	1145.67
550.53	1145.90
550.89	1142.51
551.24	1145.48
551.60	1146.89
551.95	1141.25
552.30	1138.23
552.66	1139.42
553.01	1132.56
553.37	1130.03
553.72	1133.26
554.07	1133.83
554.43	1129.26
554.78	1131.58
555.13	1134.43
555.49	1133.90
555.84	1132.73
556.19	1134.32
556.55	1130.13
556.90	1129.38
557.26	1127.13
557.61	1124.25
557.96	1117.61
558.32	1119.08
558.67	1116.51
559.02	1113.25
559.37	1111.40
559.73	1114.33
560.08	1111.73
560.43	1111.36
560.79	1112.04
561.14	1112.92
561.49	1109.67
561.85	1111.99
562.20	1112.88
562.55	1112.69
562.90	1112.41
563.26	1113.65
563.61	1111.78
563.96	1106.82
564.32	1106.77
564.67	1104.26
565.02	1105.60
565.37	1102.79
565.73	1105.65
566.08	1104.08
566.43	1107.49
566.78	1105.29
567.14	1105.44
567.49	1101.99
567.84	1104.45
568.19	1102.18
568.54	1102.09
568.90	1104.55
569.25	1105.22
569.60	1099.89
569.95	1097.45
570.31	1092.54
570.66	1093.15
571.01	1090.32
571.36	1091.98
571.71	1095.53
572.06	1099.89
572.42	1094.81
572.77	1096.89
573.12	1098.23
573.47	1095.75
573.82	1093.64
574.18	1091.37
574.53	1092.26
574.88	1090.83
575.23	1088.61
575.58	1091.09
575.93	1095.23
576.28	1095.84
576.64	1095.23
576.99	1097.06
577.34	1094.57
577.69	1093.55
578.04	1091.42
578.39	1090.62
578.74	1092.12
579.09	1094.25
579.44	1095.42
579.80	1094.01
580.15	1093.33
580.50	1089.78
580.85	1090.50
581.20	1090.13
581.55	1093.31
581.90	1095.91
582.25	1096.89
582.60	1092.33
582.95	1093.17
583.30	1090.36
583.65	1088.84
584.00	1090.17
584.35	1093.64
584.71	1091.13
585.06	1094.95
585.41	1096.12
585.76	1094.90
586.11	1093.57
586.46	1096.26
586.81	1091.30
587.16	1090.55
587.51	1089.80
587.86	1087.69
588.21	1083.69
588.56	1086.38
588.91	1086.99
589.26	1086.83
589.61	1086.66
589.96	1088.28
590.31	1088.84
590.66	1089.22
591.01	1091.67
591.36	1093.38
591.71	1093.33
592.06	1090.57
592.41	1090.97
592.76	1086.80
593.10	1088.40
593.45	1089.24
593.80	1090.78
594.15	1086.45
594.50	1087.44
594.85	1086.80
595.20	1087.62
595.55	1086.22
595.90	1086.10
596.25	1089.26
596.60	1089.68
596.95	1086.52
597.30	1089.29
597.64	1102.93
597.99	1099.00
598.34	1098.20
598.69	1100.05
599.04	1099.68
599.39	1087.25
599.74	1087.86
600.09	1087.13
600.44	1084.98
600.78	1082.17
601.13	1082.19
601.48	1082.08
601.83	1082.15
602.18	1083.46
602.53	1086.85
602.88	1084.77
603.22	1082.99
603.57	1081.12
603.92	1083.76
604.27	1081.66
604.62	1085.73
604.97	1086.45
605.31	1085.17
605.66	1082.76
606.01	1080.81
606.36	1079.76
606.71	1079.76
607.05	1081.44
607.40	1081.00
607.75	1081.96
608.10	1081.73
608.44	1081.73
608.79	1083.41
609.14	1083.76
609.49	1082.61
609.84	1082.22
610.18	1084.14
610.53	1083.25
610.88	1082.73
611.23	1083.67
611.57	1085.00
611.92	1084.11
612.27	1084.74
612.62	1084.98
612.96	1084.53
613.31	1083.25
613.66	1082.01
614.00	1083.11
614.35	1084.67
614.70	1087.18
615.05	1086.52
615.39	1087.18
615.74	1082.90
616.09	1080.72
616.43	1079.99
616.78	1082.54
617.13	1085.63
617.47	1090.34
617.82	1091.91
618.17	1092.12
618.51	1090.69
618.86	1090.99
619.21	1087.83
619.55	1088.79
619.90	1086.27
620.25	1087.58
620.59	1082.76
620.94	1085.70
621.29	1084.11
621.63	1087.37
621.98	1083.06
622.32	1083.86
622.67	1081.44
623.02	1081.14
623.36	1079.76
623.71	1082.29
624.05	1083.76
624.40	1083.48
624.75	1080.67
625.09	1078.73
625.44	1078.14
625.78	1079.64
626.13	1077.04
626.48	1081.26
626.82	1082.22
627.17	1082.33
627.51	1079.48
627.86	1082.92
628.20	1081.94
628.55	1084.02
628.89	1083.36
629.24	1085.40
629.58	1086.01
629.93	1084.00
630.28	1082.10
630.62	1083.79
630.97	1081.94
631.31	1077.65
631.66	1080.95
632.00	1081.51
632.35	1077.56
632.69	1077.70
633.04	1079.76
633.38	1078.94
633.73	1075.10
634.07	1078.47
634.42	1080.46
634.76	1078.78
635.11	1078.43
635.45	1082.97
635.79	1080.93
636.14	1079.53
636.48	1080.48
636.83	1077.93
637.17	1078.80
637.52	1081.07
637.86	1081.66
638.21	1081.37
638.55	1084.30
638.89	1082.66
639.24	1081.94
639.58	1082.01
639.93	1083.69
640.27	1080.56
640.61	1080.18
640.96	1079.31
641.30	1077.28
641.65	1076.11
641.99	1074.61
642.33	1074.89
642.68	1078.31
643.02	1078.96
643.37	1080.98
643.71	1084.96
644.05	1081.73
644.40	1081.14
644.74	1079.53
645.08	1079.03
645.43	1077.91
645.77	1079.38
646.11	1077.35
646.46	1078.64
646.80	1080.04
647.14	1079.71
647.49	1078.96
647.83	1079.55
648.17	1080.81
648.52	1081.58
648.86	1082.52
649.20	1084.72
649.55	1087.93
649.89	1089.19
650.23	1087.79
650.57	1089.03
650.92	1090.74
651.26	1086.83
651.60	1083.32
651.95	1082.69
652.29	1083.64
652.63	1083.76
652.97	1090.43
653.32	1091.58
653.66	1091.63
654.00	1089.43
654.34	1085.28
654.69	1079.55
655.03	1079.48
655.37	1080.86
655.71	1081.77
656.05	1085.05
656.40	1084.63
656.74	1088.42
657.08	1085.07
657.42	1086.17
657.76	1086.06
658.11	1086.85
658.45	1084.89
658.79	1087.97
659.13	1085.47
659.47	1085.17
659.82	1083.01
660.16	1082.71
660.50	1082.40
660.84	1083.71
661.18	1082.80
661.52	1083.55
661.87	1082.83
662.21	1079.48
662.55	1079.31
662.89	1082.19
663.23	1082.83
663.57	1082.24
663.91	1086.03
664.25	1085.52
664.60	1081.12
664.94	1078.71
665.28	1082.24
665.62	1080.84
665.96	1079.90
666.30	1079.10
666.64	1079.34
666.98	1074.84
667.32	1073.11
667.66	1074.03
668.01	1074.07
668.35	1074.98
668.69	1077.18
669.03	1078.96
669.37	1078.96
669.71	1082.24
670.05	1081.89
670.39	1082.10
670.73	1079.31
671.07	1079.31
671.41	1076.67
671.75	1077.58
672.09	1075.41
672.43	1079.85
672.77	1080.16
673.11	1084.30
673.45	1086.57
673.79	1089.26
674.13	1087.16
674.47	1085.19
674.81	1082.61
675.15	1083.46
675.49	1082.10
675.83	1081.33
676.17	1079.81
676.51	1081.42
676.85	1079.76
677.19	1078.75
677.53	1079.78
677.87	1082.47
678.21	1081.16
678.55	1078.64
678.89	1081.82
679.23	1083.06
679.57	1081.23
679.90	1082.24
680.24	1084.96
680.58	1083.74
680.92	1081.70
681.26	1086.73
681.60	1083.83
681.94	1080.23
682.28	1079.92
682.62	1081.77
682.96	1079.92
683.29	1079.46
683.63	1080.60
683.97	1080.34
684.31	1078.10
684.65	1077.44
684.99	1077.25
685.33	1078.50
685.67	1079.46
686.00	1078.21
686.34	1077.65
686.68	1079.71
687.02	1078.26
687.36	1077.30
687.70	1081.30
688.03	1082.36
688.37	1085.33
688.71	1085.33
689.05	1085.31
689.39	1084.02
689.72	1082.64
690.06	1078.89
690.40	1082.69
690.74	1081.70
691.08	1080.81
691.41	1078.96
691.75	1078.47
692.09	1077.68
692.43	1078.24
692.76	1077.65
693.10	1078.89
693.44	1078.40
693.78	1076.88
694.11	1079.90
694.45	1080.81
694.79	1080.65
695.13	1084.53
695.46	1082.47
695.80	1081.28
696.14	1082.78
696.48	1081.26
696.81	1080.84
697.15	1084.98
697.49	1081.12
697.82	1080.44
698.16	1077.54
698.50	1074.40
698.83	1071.33
699.17	1071.85
699.51	1072.27
699.84	1078.31
700.18	1077.63
700.52	1079.06
700.85	1082.10
701.19	1080.58
701.53	1080.70
701.86	1082.64
702.20	1082.73
702.54	1084.25
702.87	1084.25
703.21	1083.79
703.55	1084.14
703.88	1079.03
704.22	1073.30
704.55	1072.55
704.89	1070.35
705.23	1069.55
705.56	1076.65
705.90	1077.84
706.23	1076.39
706.57	1079.10
706.91	1079.43
707.24	1078.38
707.58	1078.21
707.91	1077.02
708.25	1075.73
708.58	1074.87
708.92	1074.35
709.26	1074.49
709.59	1076.15
709.93	1075.69
710.26	1075.36
710.60	1074.52
710.93	1078.10
711.27	1078.75
711.60	1079.34
711.94	1081.68
712.27	1080.27
712.61	1077.25
712.94	1076.48
713.28	1075.87
713.61	1076.06
713.95	1078.57
714.28	1081.63
714.62	1084.00
714.95	1085.33
715.29	1081.82
715.62	1081.47
715.96	1080.20
716.29	1080.72
716.63	1081.61
716.96	1084.91
717.29	1083.74
717.63	1080.70
717.96	1080.13
718.30	1079.88
718.63	1080.30
718.97	1081.54
719.30	1084.58
719.63	1084.37
719.97	1082.31
720.30	1082.22
720.64	1080.91
720.97	1082.05
721.30	1086.64
721.64	1085.42
721.97	1083.90
722.31	1084.25
722.64	1082.36
722.97	1080.13
723.31	1083.11
723.64	1082.33
723.97	1080.25
724.31	1076.93
724.64	1071.59
724.98	1072.11
725.31	1072.67
725.64	1076.23
725.98	1076.39
726.31	1077.61
726.64	1073.77
726.97	1077.77
727.31	1077.11
727.64	1081.33
727.97	1082.05
728.31	1086.08
728.64	1083.60
728.97	1080.09
729.31	1079.95
729.64	1081.91
729.97	1077.91
730.30	1075.31
730.64	1079.17
730.97	1079.20
731.30	1078.10
731.63	1078.92
731.97	1079.03
732.30	1077.75
732.63	1075.55
732.96	1075.13
733.30	1075.83
733.63	1075.97
733.96	1074.19
734.29	1076.34
734.63	1076.93
734.96	1080.16
735.29	1080.37
735.62	1080.67
735.95	1080.41
736.29	1080.20
736.62	1078.47
736.95	1080.67
737.28	1084.23
737.61	1084.60
737.94	1083.36
738.28	1082.69
738.61	1083.74
738.94	1081.37
739.27	1082.50
739.60	1083.97
739.93	1081.35
740.27	1076.69
740.60	1076.95
740.93	1077.14
741.26	1078.54
741.59	1080.84
741.92	1082.50
742.25	1082.38
742.58	1082.05
742.91	1081.40
743.25	1080.63
743.58	1080.46
743.91	1079.36
744.24	1075.08
744.57	1075.13
744.90	1075.31
745.23	1078.92
745.56	1079.50
745.89	1080.65
746.22	1081.42
746.55	1082.36
746.88	1078.38
747.21	1077.84
747.54	1076.53
747.87	1071.66
748.20	1074.66
748.53	1074.91
748.87	1075.03
749.20	1076.04
749.53	1077.61
749.86	1075.55
750.19	1078.66
750.52	1081.09
750.85	1082.64
751.18	1082.76
751.51	1078.78
751.84	1077.61
752.16	1078.24
752.49	1078.50
752.82	1079.17
753.15	1081.09
753.48	1081.21
753.81	1080.18
754.14	1079.55
754.47	1079.08
754.80	1080.84
755.13	1083.01
755.46	1083.76
755.79	1082.80
756.12	1086.34
756.45	1085.40
756.78	1082.71
757.11	1083.62
757.43	1086.62
757.76	1083.53
758.09	1082.08
758.42	1080.58
758.75	1077.14
759.08	1074.80
759.41	1077.70
759.74	1079.53
760.07	1083.64
760.39	1084.77
760.72	1085.73
761.05	1083.62
761.38	1085.70
761.71	1083.97
762.04	1083.90
762.36	1080.77
762.69	1078.96
763.02	1074.87
763.35	1074.33
763.68	1074.94
764.01	1079.29
764.33	1079.03
764.66	1081.05
764.99	1080.32
765.32	1079.57
765.65	1079.76
765.97	1079.78
766.30	1080.09
766.63	1077.98
766.96	1077.33
767.28	1075.01
767.61	1075.13
767.94	1077.11
768.27	1079.88
768.59	1078.71
768.92	1079.29
769.25	1078.26
769.58	1077.04
769.90	1074.96
770.23	1075.08
770.56	1074.26
770.89	1077.18
771.21	1076.81
771.54	1079.60
771.87	1083.48
772.19	1084.25
772.52	1083.76
772.85	1083.48
773.17	1081.49
773.50	1079.01
773.83	1077.28
774.15	1079.03
774.48	1076.81
774.81	1077.79
775.13	1078.50
775.46	1082.73
775.79	1082.29
776.11	1082.61
776.44	1081.35
776.77	1079.20
777.09	1075.62
777.42	1076.11
777.74	1076.81
778.07	1078.87
778.40	1079.83
778.72	1080.70
779.05	1079.24
779.37	1080.41
779.70	1079.67
780.03	1078.52
780.35	1080.32
780.68	1077.77
781.00	1076.62
781.33	1074.59
781.65	1077.91
781.98	1072.95
782.31	1075.31
782.63	1073.67
782.96	1075.03
783.28	1075.08
783.61	1078.52
783.93	1080.51
784.26	1082.10
784.58	1080.63
784.91	1081.66
785.23	1080.60
785.56	1080.41
785.88	1079.15
786.21	1081.21
786.53	1076.48
786.86	1079.20
787.18	1078.85
787.51	1082.97
787.83	1081.96
788.16	1084.23
788.48	1082.64
788.81	1083.01
789.13	1078.17
789.46	1078.40
789.78	1078.78
790.10	1078.85
790.43	1076.83
790.75	1078.43
791.08	1076.11
791.40	1073.65
791.73	1074.12
792.05	1075.62
792.37	1077.16
792.70	1076.55
793.02	1078.40
793.35	1079.22
793.67	1077.40
793.99	1077.07
794.32	1078.24
794.64	1078.50
794.96	1075.29
795.29	1074.35
795.61	1074.56
795.93	1077.51
796.26	1077.44
796.58	1078.61
796.91	1078.85
797.23	1076.72
797.55	1074.05
797.87	1073.46
798.20	1072.92
798.52	1071.64
798.84	1071.92
799.17	1071.54
799.49	1071.75
799.81	1070.44
800.14	1072.64
800.46	1072.88
800.78	1077.14
801.10	1077.54
801.43	1077.28
801.75	1079.31
802.07	1080.60
802.40	1078.12
802.72	1077.86
803.04	1080.11
803.36	1076.34
803.69	1076.58
804.01	1078.03
804.33	1075.29
804.65	1074.96
804.97	1075.97
805.30	1072.78
805.62	1069.58
805.94	1071.64
806.26	1071.40
806.58	1072.41
806.91	1076.30
807.23	1077.91
807.55	1077.86
807.87	1076.69
808.19	1076.65
808.52	1072.20
808.84	1075.01
809.16	1075.24
809.48	1074.82
809.80	1076.81
810.12	1075.41
810.44	1072.36
810.77	1073.77
811.09	1076.69
811.41	1075.17
811.73	1080.67
812.05	1081.63
812.37	1080.32
812.69	1079.64
813.01	1077.58
813.33	1076.13
813.66	1073.81
813.98	1074.66
814.30	1071.45
814.62	1073.11
814.94	1073.49
815.26	1076.32
815.58	1076.76
815.90	1078.85
816.22	1075.50
816.54	1075.22
816.86	1074.80
817.18	1072.13
817.50	1074.63
817.82	1074.73
818.14	1073.46
818.46	1074.21
818.78	1076.95
819.10	1073.58
819.42	1079.34
819.74	1083.71
820.06	1082.64
820.38	1079.48
820.70	1078.94
821.02	1074.77
821.34	1069.25
821.66	1068.45
821.98	1071.31
822.30	1073.77
822.62	1076.44
822.94	1078.45
823.26	1080.23
823.58	1078.03
823.90	1076.90
824.22	1075.90
824.54	1074.87
824.86	1072.83
825.18	1074.00
825.50	1072.32
825.81	1071.61
826.13	1072.11
826.45	1075.66
826.77	1077.93
827.09	1081.98
827.41	1082.99
827.73	1083.08
828.05	1081.12
828.36	1078.92
828.68	1080.25
829.00	1079.97
829.32	1082.90
829.64	1081.21
829.96	1082.92
830.28	1078.50
830.59	1078.85
830.91	1075.20
831.23	1078.66
831.55	1080.56
831.87	1082.90
832.19	1082.17
832.50	1082.12
832.82	1079.92
833.14	1074.89
833.46	1072.88
833.78	1073.53
834.09	1078.87
834.41	1080.53
834.73	1081.40
835.05	1081.63
835.36	1082.40
835.68	1078.66
836.00	1073.74
836.32	1074.61
836.63	1074.73
836.95	1073.95
837.27	1073.28
837.59	1078.03
837.90	1077.91
838.22	1080.86
838.54	1077.02
838.85	1079.92
839.17	1076.51
839.49	1078.36
839.80	1076.46
840.12	1080.67
840.44	1077.54
840.76	1080.32
841.07	1077.49
841.39	1076.67
841.71	1075.24
842.02	1077.23
842.34	1075.69
842.65	1073.81
842.97	1073.67
843.29	1072.34
843.60	1070.58
843.92	1067.64
844.24	1069.86
844.55	1071.90
844.87	1072.34
845.18	1073.35
845.50	1074.42
845.82	1074.19
846.13	1074.75
846.45	1074.21
846.76	1074.77
847.08	1074.31
847.40	1074.28
847.71	1073.07
848.03	1073.72
848.34	1072.60
848.66	1076.69
848.97	1075.17
849.29	1073.70
849.60	1072.95
849.92	1074.66
850.24	1072.97
850.55	1076.55
850.87	1077.30
851.18	1079.67
851.50	1078.57
851.81	1080.77
852.13	1080.39
852.44	1079.22
852.76	1080.02
853.07	1078.33
853.39	1075.92
853.70	1072.69
854.01	1076.13
854.33	1074.52
854.64	1075.08
854.96	1075.15
855.27	1079.55
855.59	1072.83
855.90	1074.77
856.22	1077.54
856.53	1077.58
856.84	1077.44
857.16	1082.47
857.47	1079.10
857.79	1076.32
858.10	1073.58
858.41	1069.27
858.73	1067.61
859.04	1069.04
859.36	1068.62
859.67	1071.97
859.98	1074.05
860.30	1074.10
860.61	1073.39
860.92	1075.85
861.24	1074.61
861.55	1074.38
861.87	1075.55
862.18	1079.83
862.49	1081.42
862.81	1084.00
863.12	1087.79
863.43	1086.55
863.74	1081.63
864.06	1078.87
864.37	1077.40
864.68	1072.95
865.00	1073.44
865.31	1076.06
865.62	1075.78
865.94	1075.69
866.25	1075.62
866.56	1074.21
866.87	1073.58
867.19	1076.62
867.50	1073.11
867.81	1072.50
868.12	1075.13
868.44	1073.42
868.75	1071.29
869.06	1074.94
869.37	1078.68
869.68	1076.08
870.00	1075.59
870.31	1072.01
870.62	1071.05
870.93	1071.68
871.24	1073.07
871.56	1076.23
871.87	1077.07
872.18	1078.40
872.49	1073.95
872.80	1075.57
873.12	1074.56
873.43	1076.79
873.74	1073.14
874.05	1073.44
874.36	1073.30
874.67	1075.05
874.98	1076.79
875.29	1083.18
875.61	1085.19
875.92	1084.18
876.23	1081.05
876.54	1078.92
876.85	1078.87
877.16	1079.17
877.47	1079.15
877.78	1078.26
878.09	1077.02
878.40	1078.12
878.72	1079.99
879.03	1079.46
879.34	1080.13
879.65	1083.01
879.96	1077.96
880.27	1076.08
880.58	1077.65
880.89	1078.73
881.20	1074.61
881.51	1074.31
881.82	1072.15
882.13	1072.29
882.44	1071.10
882.75	1073.86
883.06	1075.22
883.37	1076.95
883.68	1075.80
883.99	1080.04
884.30	1080.27
884.61	1079.85
884.92	1079.03
885.23	1077.98
885.54	1074.77
885.85	1076.08
886.16	1076.53
886.47	1077.63
886.78	1079.62
887.08	1078.21
887.39	1075.50
887.70	1072.20
888.01	1068.50
888.32	1068.92
888.63	1070.94
888.94	1075.87
889.25	1080.79
889.56	1083.46
889.87	1083.11
890.17	1081.73
890.48	1076.25
890.79	1074.47
891.10	1076.01
891.41	1075.50
891.72	1075.71
892.03	1074.98
892.34	1072.32
892.64	1071.87
892.95	1073.84
893.26	1073.35
893.57	1074.82
893.88	1078.38
894.18	1076.39
894.49	1075.45
894.80	1075.78
895.11	1078.54
895.42	1079.55
895.72	1083.22
896.03	1079.78
896.34	1079.03
896.65	1078.59
896.96	1075.99
897.26	1073.09
897.57	1077.14
897.88	1080.11
898.19	1077.82
898.49	1078.59
898.80	1078.80
899.11	1079.03
899.41	1077.82
899.72	1080.34
900.03	1081.58
900.34	1080.65
900.64	1075.76
900.95	1077.18
901.26	1077.02
901.56	1074.61
901.87	1076.90
902.18	1081.70
902.48	1078.73
902.79	1078.78
903.10	1077.93
903.40	1079.22
903.71	1074.80
904.02	1077.02
904.32	1076.93
904.63	1079.20
904.94	1079.60
905.24	1081.96
905.55	1082.64
905.85	1081.75
906.16	1082.76
906.47	1079.90
906.77	1080.04
907.08	1077.49
907.38	1077.93
907.69	1077.61
908.00	1076.06
908.30	1076.65
908.61	1079.17
908.91	1075.27
909.22	1073.07
909.52	1075.92
909.83	1075.45
910.14	1073.98
910.44	1078.10
910.75	1080.41
911.05	1077.93
911.36	1081.37
911.66	1081.66
911.97	1081.23
912.27	1079.53
912.58	1082.76
912.88	1078.33
913.19	1079.57
913.49	1078.10
913.80	1078.99
914.10	1073.70
914.41	1075.62
914.71	1072.90
915.01	1073.30
915.32	1071.71
915.62	1076.32
915.93	1073.21
916.23	1076.15
916.54	1074.82
916.84	1078.47
917.15	1076.62
917.45	1078.57
917.75	1074.84
918.06	1075.34
918.36	1070.42
918.67	1070.61
918.97	1071.99
919.27	1074.33
919.58	1074.73
919.88	1077.54
920.18	1078.12
920.49	1073.91
920.79	1073.46
921.10	1075.15
921.40	1072.67
921.70	1072.64
922.01	1076.97
922.31	1076.32
922.61	1074.19
922.92	1078.14
923.22	1079.22
923.52	1077.16
923.82	1075.97
924.13	1079.36
924.43	1079.38
924.73	1077.93
925.04	1077.23
925.34	1079.43
925.64	1076.76
925.94	1072.36
926.25	1071.59
926.55	1072.55
926.85	1072.39
927.15	1069.37
927.46	1072.13
927.76	1071.31
928.06	1071.29
928.36	1071.22
928.67	1069.51
928.97	1065.65
929.27	1063.91
929.57	1063.26
929.87	1064.36
930.18	1070.21
930.48	1071.57
930.78	1071.64
931.08	1070.94
931.38	1071.26
931.69	1067.75
931.99	1071.85
932.29	1074.66
932.59	1075.29
932.89	1071.50
933.19	1072.36
933.49	1069.91
933.80	1070.54
934.10	1070.89
934.40	1073.65
934.70	1077.68
935.00	1077.68
935.30	1078.52
935.60	1080.65
935.90	1081.47
936.20	1076.69
936.50	1079.41
936.81	1077.04
937.11	1074.24
937.41	1073.35
937.71	1076.11
938.01	1074.47
938.31	1075.87
938.61	1076.93
938.91	1077.09
939.21	1077.09
939.51	1077.35
939.81	1078.10
940.11	1078.87
940.41	1077.72
940.71	1077.91
941.01	1076.62
941.31	1074.73
941.61	1074.14
941.91	1071.66
942.21	1070.82
942.51	1071.40
942.81	1071.97
943.11	1073.72
943.41	1077.77
943.71	1076.27
944.01	1077.79
944.31	1080.25
944.61	1078.19
944.90	1076.51
945.20	1079.36
945.50	1077.47
945.80	1075.48
946.10	1075.03
946.40	1076.41
946.70	1076.48
947.00	1077.93
947.30	1079.62
947.60	1082.57
947.89	1081.75
948.19	1079.46
948.49	1080.09
948.79	1079.88
949.09	1079.13
949.39	1077.07
949.69	1079.43
949.98	1077.65
950.28	1077.68
950.58	1076.46
950.88	1079.64
951.18	1079.01
951.48	1078.57
951.77	1078.85
952.07	1075.24
952.37	1073.91
952.67	1074.94
952.97	1073.63
953.26	1072.46
953.56	1076.72
953.86	1077.02
954.16	1076.01
954.45	1076.72
954.75	1075.57
955.05	1073.49
955.35	1076.32
955.64	1077.18
955.94	1079.34
956.24	1079.08
956.54	1080.88
956.83	1078.99
957.13	1074.82
957.43	1074.70
957.72	1077.51
958.02	1074.98
958.32	1071.31
958.61	1075.29
958.91	1074.52
959.21	1072.32
959.50	1075.50
959.80	1077.58
960.10	1078.26
960.39	1078.59
960.69	1078.75
960.99	1079.03
961.28	1076.44
961.58	1075.71
961.87	1074.12
962.17	1074.05
962.47	1073.21
962.76	1077.86
963.06	1073.32
963.36	1073.30
963.65	1078.43
963.95	1080.20
964.24	1078.03
964.54	1082.99
964.83	1085.26
965.13	1081.63
965.42	1080.63
965.72	1079.60
966.02	1080.25
966.31	1079.24
966.61	1078.12
966.90	1075.03
967.20	1077.47
967.49	1075.55
967.79	1076.04
968.08	1076.32
968.38	1073.14
968.67	1075.45
968.97	1075.38
969.26	1074.96
969.56	1075.92
969.85	1081.49
970.15	1082.15
970.44	1079.76
970.74	1080.37
971.03	1078.36
971.32	1078.87
971.62	1075.62
971.91	1077.49
972.21	1079.10
972.50	1078.03
972.80	1079.01
973.09	1079.92
973.38	1077.84
973.68	1073.32
973.97	1074.70
974.27	1072.62
974.56	1069.79
974.85	1073.04
975.15	1072.88
975.44	1071.43
975.73	1073.16
976.03	1074.07
976.32	1076.48
976.61	1079.34
976.91	1083.97
977.20	1082.31
977.49	1085.05
977.79	1082.57
978.08	1082.01
978.37	1078.50
978.67	1078.96
978.96	1080.09
979.25	1080.70
979.55	1080.18
979.84	1077.65
980.13	1075.59
980.42	1075.45
980.72	1074.45
981.01	1074.61
981.30	1077.70
981.59	1080.79
981.89	1078.61
982.18	1078.82
982.47	1077.84
982.76	1080.23
983.06	1080.70
983.35	1081.80
983.64	1082.99
983.93	1082.57
984.22	1079.64
984.52	1078.19
984.81	1074.94
985.10	1072.74
985.39	1074.59
985.68	1075.43
985.97	1073.67
986.27	1076.51
986.56	1077.89
986.85	1075.31
987.14	1075.71
987.43	1076.93
987.72	1073.63
988.01	1073.09
988.31	1076.97
988.60	1079.22
988.89	1079.76
989.18	1083.22
989.47	1086.85
989.76	1086.20
990.05	1083.11
990.34	1081.98
990.63	1077.63
990.92	1074.91
991.21	1074.45
991.51	1071.31
991.80	1071.94
992.09	1074.68
992.38	1075.76
992.67	1075.03
992.96	1078.14
993.25	1078.78
993.54	1079.36
993.83	1075.24
994.12	1075.08
994.41	1075.59
994.70	1073.88
994.99	1073.09
995.28	1078.14
995.57	1077.96
995.86	1075.22
996.15	1075.73
996.44	1077.40
996.73	1076.06
997.02	1078.26
997.31	1082.52
997.59	1082.94
997.88	1078.61
998.17	1076.13
998.46	1073.14
998.75	1070.47
999.04	1070.19
999.33	1073.84
999.62	1075.01
999.91	1076.74
1000.20	1078.14
1000.49	1077.37
1000.77	1078.68
1001.06	1077.82
1001.35	1077.09
1001.64	1076.58
1001.93	1078.33
1002.22	1076.34
1002.51	1074.77
1002.79	1077.21
1003.08	1076.08
1003.37	1074.07
1003.66	1074.12
1003.95	1075.83
1004.23	1074.38
1004.52	1074.84
1004.81	1073.86
1005.10	1069.93
1005.39	1068.62
1005.67	1066.65
1005.96	1066.35
1006.25	1065.27
1006.54	1068.24
1006.83	1069.11
1007.11	1069.06
1007.40	1068.55
1007.69	1070.68
1007.97	1071.47
1008.26	1071.31
1008.55	1072.46
1008.84	1073.42
1009.12	1075.71
1009.41	1075.05
1009.70	1077.98
1009.98	1077.61
1010.27	1077.58
1010.56	1076.46
1010.85	1078.50
1011.13	1076.65
1011.42	1072.43
1011.71	1075.78
1011.99	1078.45
1012.28	1077.07
1012.56	1077.25
1012.85	1081.35
1013.14	1080.74
1013.42	1079.22
1013.71	1079.62
1014.00	1076.72
1014.28	1078.31
1014.57	1076.25
1014.85	1076.04
1015.14	1075.20
1015.43	1075.66
1015.71	1077.35
1016.00	1079.22
1016.28	1076.79
1016.57	1075.05
1016.85	1077.77
1017.14	1075.87
1017.43	1076.79
1017.71	1075.10
1018.00	1077.30
1018.28	1076.51
1018.57	1072.36
1018.85	1072.04
1019.14	1072.11
1019.42	1074.28
1019.71	1074.24
1019.99	1075.99
1020.28	1071.40
1020.56	1074.77
1020.85	1070.21
1021.13	1067.42
1021.42	1069.70
1021.70	1068.71
1021.99	1067.89
1022.27	1070.72
1022.55	1073.84
1022.84	1077.11
>>>>>End Processed Spectral Data<<<<<
