SpectraSuite Data File
++++++++++++++++++++++++++++++++++++
Date: Mon Aug 26 10:22:15 PDT 2019
User: corrico
Dark Spectrum Present: No
Reference Spectrum Present: No
Number of Sampled Component Spectra: 1
Spectrometers: USB2+H06089
Integration Time (usec): 2000 (USB2+H06089)
Spectra Averaged: 20 (USB2+H06089)
Boxcar Smoothing: 2 (USB2+H06089)
Correct for Electrical Dark: No (USB2+H06089)
Strobe/Lamp Enabled: No (USB2+H06089)
Correct for Detector Non-linearity: No (USB2+H06089)
Correct for Stray Light: No (USB2+H06089)
Number of Pixels in Processed Spectrum: 2048
>>>>>Begin Processed Spectral Data<<<<<
339.70	1028.78
340.07	1028.78
340.45	989.27
340.82	965.94
341.19	942.25
341.57	917.47
341.94	910.12
342.31	901.81
342.69	898.32
343.06	893.08
343.43	892.21
343.81	891.30
344.18	896.28
344.55	900.83
344.93	910.26
345.30	917.00
345.67	928.21
346.04	935.00
346.42	943.31
346.79	949.98
347.16	959.34
347.54	965.61
347.91	974.25
348.28	982.72
348.65	990.68
349.03	998.36
349.40	1007.18
349.77	1016.61
350.14	1023.28
350.52	1030.02
350.89	1034.07
351.26	1040.16
351.63	1046.15
352.01	1052.98
352.38	1058.81
352.75	1065.29
353.12	1068.41
353.50	1073.95
353.87	1073.70
354.24	1077.84
354.61	1077.61
354.98	1078.21
355.36	1076.93
355.73	1081.07
356.10	1082.83
356.47	1084.67
356.84	1088.12
357.22	1089.43
357.59	1089.24
357.96	1085.75
358.33	1085.96
358.70	1084.28
359.08	1084.65
359.45	1083.95
359.82	1083.06
360.19	1082.54
360.56	1080.02
360.94	1077.35
361.31	1076.83
361.68	1079.43
362.05	1080.79
362.42	1083.74
362.79	1084.32
363.16	1081.87
363.54	1078.40
363.91	1076.51
364.28	1073.53
364.65	1074.31
365.02	1077.44
365.39	1077.68
365.76	1074.24
366.14	1070.82
366.51	1069.48
366.88	1067.66
367.25	1068.01
367.62	1069.81
367.99	1072.22
368.36	1072.43
368.73	1071.97
369.10	1071.75
369.48	1073.46
369.85	1072.95
370.22	1072.85
370.59	1072.85
370.96	1072.76
371.33	1076.39
371.70	1078.14
372.07	1080.39
372.44	1080.72
372.81	1081.70
373.18	1076.62
373.55	1079.06
373.93	1078.43
374.30	1077.28
374.67	1076.74
375.04	1076.25
375.41	1073.42
375.78	1075.27
376.15	1075.90
376.52	1078.05
376.89	1079.71
377.26	1077.86
377.63	1074.80
378.00	1078.38
378.37	1073.44
378.74	1077.16
379.11	1082.45
379.48	1080.74
379.85	1077.16
380.22	1079.34
380.59	1076.15
380.96	1074.73
381.33	1076.37
381.70	1077.33
382.07	1080.65
382.44	1081.42
382.81	1081.14
383.18	1081.12
383.55	1081.87
383.92	1081.16
384.29	1081.75
384.66	1084.32
385.03	1082.43
385.40	1084.04
385.77	1087.69
386.14	1086.38
386.51	1083.41
386.88	1086.71
387.25	1086.20
387.62	1081.96
387.99	1085.31
388.36	1087.16
388.73	1088.07
389.10	1088.49
389.46	1090.24
389.83	1087.58
390.20	1086.83
390.57	1086.97
390.94	1084.09
391.31	1083.83
391.68	1085.35
392.05	1082.71
392.42	1079.38
392.79	1082.85
393.16	1083.55
393.53	1082.36
393.89	1085.80
394.26	1089.10
394.63	1089.92
395.00	1088.23
395.37	1087.02
395.74	1087.44
396.11	1085.94
396.48	1083.34
396.84	1082.12
397.21	1085.47
397.58	1083.34
397.95	1082.92
398.32	1084.04
398.69	1088.68
399.06	1087.81
399.42	1090.01
399.79	1090.64
400.16	1090.60
400.53	1089.00
400.90	1087.04
401.27	1085.70
401.64	1084.89
402.00	1085.26
402.37	1083.46
402.74	1085.66
403.11	1089.59
403.48	1090.27
403.84	1092.61
404.21	1094.48
404.58	1095.16
404.95	1093.08
405.32	1095.37
405.68	1093.33
406.05	1094.13
406.42	1096.14
406.79	1094.69
407.16	1095.39
407.52	1098.74
407.89	1100.66
408.26	1099.56
408.63	1101.88
408.99	1100.59
409.36	1097.71
409.73	1094.67
410.10	1094.83
410.47	1094.27
410.83	1095.65
411.20	1097.27
411.57	1097.29
411.94	1098.06
412.30	1101.03
412.67	1099.79
413.04	1101.41
413.40	1102.51
413.77	1101.69
414.14	1100.24
414.51	1102.37
414.87	1098.11
415.24	1100.03
415.61	1100.24
415.97	1098.62
416.34	1098.39
416.71	1102.18
417.08	1103.96
417.44	1104.45
417.81	1106.68
418.18	1107.49
418.54	1107.80
418.91	1107.14
419.28	1108.55
419.64	1109.55
420.01	1111.94
420.38	1112.64
420.74	1114.00
421.11	1117.79
421.48	1121.56
421.84	1123.78
422.21	1128.28
422.58	1131.81
422.94	1131.98
423.31	1132.09
423.68	1131.65
424.04	1133.01
424.41	1135.44
424.77	1139.91
425.14	1143.94
425.51	1149.23
425.87	1153.23
426.24	1159.01
426.61	1165.70
426.97	1172.02
427.34	1178.41
427.70	1187.21
428.07	1193.53
428.44	1200.84
428.80	1208.32
429.17	1219.09
429.53	1228.52
429.90	1238.92
430.27	1247.15
430.63	1260.75
431.00	1274.54
431.36	1287.53
431.73	1302.04
432.09	1321.91
432.46	1341.69
432.83	1358.19
433.19	1375.65
433.56	1400.39
433.92	1421.36
434.29	1443.06
434.65	1470.14
435.02	1501.10
435.38	1527.85
435.75	1556.64
436.11	1592.83
436.48	1628.59
436.84	1669.78
437.21	1713.74
437.57	1759.01
437.94	1800.15
438.30	1852.35
438.67	1905.24
439.03	1963.33
439.40	2030.37
439.76	2101.26
440.13	2174.66
440.49	2250.47
440.86	2326.38
441.22	2409.00
441.59	2491.41
441.95	2582.41
442.32	2680.17
442.68	2792.38
443.05	2902.92
443.41	3025.94
443.78	3144.58
444.14	3275.77
444.51	3402.98
444.87	3559.91
445.24	3711.57
445.60	3879.18
445.96	4040.89
446.33	4231.38
446.69	4406.69
447.06	4603.11
447.42	4813.87
447.79	5051.51
448.15	5302.74
448.51	5578.90
448.88	5898.48
449.24	6198.58
449.61	6529.65
449.97	6864.60
450.33	7196.09
450.70	7500.55
451.06	7893.22
451.43	8247.42
451.79	8672.08
452.15	9151.38
452.52	9682.14
452.88	10209.53
453.24	10815.24
453.61	11464.13
453.97	12105.20
454.34	12731.48
454.70	13460.82
455.06	14203.61
455.43	14931.68
455.79	15614.70
456.15	16433.16
456.52	17198.12
456.88	18117.20
457.24	18997.57
457.61	20028.39
457.97	20944.96
458.33	21871.07
458.70	22746.00
459.06	23636.41
459.42	24597.88
459.79	25564.52
460.15	26672.18
460.51	27739.00
460.88	28857.73
461.24	29798.18
461.60	30878.57
461.96	31815.35
462.33	32691.57
462.69	33529.84
463.05	34509.44
463.42	35363.04
463.78	36179.39
464.14	36896.91
464.50	37621.37
464.87	38172.64
465.23	38559.62
465.59	38929.87
465.95	39241.89
466.32	39470.26
466.68	39677.70
467.04	39822.34
467.40	39967.29
467.77	40137.87
468.13	40153.36
468.49	40034.51
468.85	39922.24
469.22	39688.53
469.58	39299.70
469.94	39076.58
470.30	38884.09
470.66	38576.55
471.03	38050.91
471.39	37695.10
471.75	36945.15
472.11	36157.25
472.47	35598.66
472.84	35097.53
473.20	34394.20
473.56	33987.79
473.92	33420.88
474.28	32800.48
474.65	32250.27
475.01	31754.68
475.37	31156.70
475.73	30675.25
476.09	30074.57
476.45	29477.64
476.81	28874.09
477.18	28244.46
477.54	27694.27
477.90	27247.77
478.26	26719.04
478.62	26232.58
478.98	25813.32
479.34	25382.55
479.71	24871.66
480.07	24418.74
480.43	24007.09
480.79	23555.15
481.15	23149.70
481.51	22780.69
481.87	22487.14
482.23	22138.24
482.59	21849.42
482.96	21525.84
483.32	21212.67
483.68	20845.70
484.04	20516.43
484.40	20127.74
484.76	19747.76
485.12	19359.98
485.48	18991.69
485.84	18581.16
486.20	18202.02
486.56	17767.50
486.92	17395.82
487.28	16993.55
487.64	16596.57
488.00	16195.27
488.37	15829.72
488.73	15390.19
489.09	14947.88
489.45	14552.21
489.81	14161.08
490.17	13769.00
490.53	13406.33
490.89	13050.80
491.25	12690.13
491.61	12332.14
491.97	11978.86
492.33	11601.85
492.69	11259.54
493.05	10928.43
493.41	10602.32
493.77	10287.61
494.13	10000.69
494.49	9714.25
494.85	9437.41
495.21	9185.60
495.57	8947.33
495.93	8725.99
496.29	8510.91
496.64	8308.85
497.00	8095.70
497.36	7879.48
497.72	7674.71
498.08	7482.62
498.44	7283.23
498.80	7097.44
499.16	6914.01
499.52	6726.18
499.88	6557.10
500.24	6404.03
500.60	6262.34
500.96	6130.12
501.32	5998.49
501.68	5859.84
502.03	5701.97
502.39	5544.50
502.75	5384.07
503.11	5233.63
503.47	5085.91
503.83	4948.22
504.19	4811.39
504.55	4692.47
504.91	4579.89
505.26	4471.87
505.62	4374.27
505.98	4274.82
506.34	4162.41
506.70	4059.78
507.06	3964.45
507.42	3866.78
507.78	3771.31
508.13	3695.45
508.49	3610.53
508.85	3522.93
509.21	3445.43
509.57	3374.58
509.93	3300.16
510.28	3227.27
510.64	3156.77
511.00	3083.16
511.36	3016.08
511.72	2949.40
512.07	2895.27
512.43	2838.51
512.79	2784.86
513.15	2726.63
513.51	2678.23
513.86	2621.61
514.22	2574.96
514.58	2528.95
514.94	2485.53
515.30	2445.25
515.65	2407.85
516.01	2369.44
516.37	2329.58
516.73	2296.86
517.08	2260.54
517.44	2220.09
517.80	2182.62
518.16	2151.28
518.51	2111.91
518.87	2073.11
519.23	2047.31
519.59	2019.55
519.94	1990.60
520.30	1967.17
520.66	1942.90
521.01	1913.29
521.37	1889.91
521.73	1865.17
522.09	1843.22
522.44	1822.95
522.80	1802.59
523.16	1780.16
523.51	1757.32
523.87	1735.39
524.23	1714.18
524.58	1693.92
524.94	1668.61
525.30	1649.63
525.65	1629.93
526.01	1609.70
526.37	1593.39
526.72	1582.58
527.08	1565.42
527.44	1550.82
527.79	1537.57
528.15	1523.71
528.51	1504.61
528.86	1493.29
529.22	1482.87
529.58	1470.28
529.93	1454.92
530.29	1447.06
530.65	1435.90
531.00	1424.61
531.36	1413.10
531.71	1404.70
532.07	1392.06
532.43	1384.40
532.78	1376.63
533.14	1370.52
533.49	1363.29
533.85	1360.81
534.21	1348.45
534.56	1339.91
534.92	1329.45
535.27	1322.24
535.63	1311.92
535.98	1304.59
536.34	1299.18
536.69	1293.43
537.05	1287.01
537.41	1283.92
537.76	1281.86
538.12	1274.49
538.47	1267.68
538.83	1260.26
539.18	1255.04
539.54	1250.92
539.89	1245.02
540.25	1241.84
540.60	1238.07
540.96	1236.95
541.31	1230.54
541.67	1226.37
542.02	1224.38
542.38	1220.89
542.73	1217.69
543.09	1216.49
543.44	1213.64
543.80	1205.05
544.15	1203.01
544.51	1194.84
544.86	1190.96
545.22	1189.93
545.57	1192.13
545.93	1190.09
546.28	1188.06
546.64	1183.66
546.99	1179.93
547.35	1176.89
547.70	1172.61
548.05	1171.98
548.41	1173.29
548.76	1171.09
549.12	1168.33
549.47	1165.77
549.83	1161.07
550.18	1156.88
550.53	1155.17
550.89	1156.41
551.24	1154.84
551.60	1153.95
551.95	1152.85
552.30	1148.41
552.66	1145.86
553.01	1143.35
553.37	1144.29
553.72	1142.02
554.07	1141.25
554.43	1136.70
554.78	1138.27
555.13	1136.94
555.49	1137.34
555.84	1136.70
556.19	1135.89
556.55	1134.57
556.90	1130.15
557.26	1125.31
557.61	1125.75
557.96	1124.86
558.32	1120.02
558.67	1120.11
559.02	1122.83
559.37	1121.68
559.73	1120.16
560.08	1123.08
560.43	1121.68
560.79	1116.65
561.14	1114.68
561.49	1115.36
561.85	1113.04
562.20	1113.51
562.55	1116.95
562.90	1116.79
563.26	1114.45
563.61	1112.95
563.96	1114.02
564.32	1110.23
564.67	1111.47
565.02	1112.01
565.37	1114.26
565.73	1111.97
566.08	1113.23
566.43	1112.18
566.78	1113.39
567.14	1114.42
567.49	1114.54
567.84	1113.93
568.19	1110.35
568.54	1109.86
568.90	1104.03
569.25	1103.02
569.60	1102.46
569.95	1102.42
570.31	1099.72
570.66	1102.37
571.01	1099.58
571.36	1098.53
571.71	1099.84
572.06	1098.74
572.42	1094.43
572.77	1095.28
573.12	1096.12
573.47	1097.38
573.82	1095.89
574.18	1099.40
574.53	1098.88
574.88	1094.13
575.23	1090.60
575.58	1092.87
575.93	1092.47
576.28	1092.42
576.64	1096.54
576.99	1101.43
577.34	1103.96
577.69	1106.14
578.04	1105.29
578.39	1105.22
578.74	1101.81
579.09	1097.13
579.44	1094.72
579.80	1095.30
580.15	1093.94
580.50	1092.70
580.85	1098.11
581.20	1096.78
581.55	1099.07
581.90	1101.60
582.25	1104.73
582.60	1103.12
582.95	1103.45
583.30	1103.70
583.65	1098.95
584.00	1090.97
584.35	1086.55
584.71	1089.24
585.06	1086.34
585.41	1089.57
585.76	1096.00
586.11	1101.06
586.46	1100.19
586.81	1096.45
587.16	1095.16
587.51	1091.46
587.86	1087.48
588.21	1087.06
588.56	1090.69
588.91	1092.70
589.26	1095.72
589.61	1094.57
589.96	1092.73
590.31	1089.96
590.66	1090.81
591.01	1089.36
591.36	1091.95
591.71	1088.04
592.06	1092.56
592.41	1090.62
592.76	1091.44
593.10	1088.49
593.45	1091.84
593.80	1088.68
594.15	1088.68
594.50	1087.88
594.85	1087.74
595.20	1087.18
595.55	1088.37
595.90	1084.77
596.25	1084.30
596.60	1084.72
596.95	1087.34
597.30	1086.31
597.64	1099.82
597.99	1100.75
598.34	1100.64
598.69	1101.78
599.04	1100.96
599.39	1088.42
599.74	1087.62
600.09	1089.59
600.44	1088.37
600.78	1088.72
601.13	1090.76
601.48	1089.36
601.83	1089.64
602.18	1088.51
602.53	1091.53
602.88	1093.01
603.22	1093.71
603.57	1092.84
603.92	1090.81
604.27	1085.17
604.62	1085.66
604.97	1088.07
605.31	1090.15
605.66	1088.26
606.01	1092.23
606.36	1086.76
606.71	1083.83
607.05	1079.41
607.40	1084.70
607.75	1085.38
608.10	1087.76
608.44	1088.98
608.79	1093.43
609.14	1088.72
609.49	1085.54
609.84	1089.00
610.18	1089.07
610.53	1087.60
610.88	1089.85
611.23	1091.98
611.57	1089.94
611.92	1088.56
612.27	1086.41
612.62	1086.62
612.96	1086.41
613.31	1085.05
613.66	1083.88
614.00	1086.36
614.35	1084.63
614.70	1084.32
615.05	1085.49
615.39	1087.16
615.74	1083.48
616.09	1086.20
616.43	1083.55
616.78	1080.18
617.13	1080.37
617.47	1082.38
617.82	1082.22
618.17	1084.72
618.51	1088.23
618.86	1088.75
619.21	1087.13
619.55	1088.21
619.90	1085.03
620.25	1082.01
620.59	1081.47
620.94	1086.22
621.29	1085.00
621.63	1088.37
621.98	1089.07
622.32	1090.39
622.67	1085.38
623.02	1085.05
623.36	1083.36
623.71	1083.97
624.05	1079.24
624.40	1079.10
624.75	1078.68
625.09	1082.01
625.44	1079.64
625.78	1082.54
626.13	1085.14
626.48	1085.80
626.82	1081.94
627.17	1085.00
627.51	1085.52
627.86	1088.33
628.20	1084.25
628.55	1083.55
628.89	1083.34
629.24	1079.71
629.58	1075.80
629.93	1078.05
630.28	1081.42
630.62	1079.24
630.97	1082.92
631.31	1082.73
631.66	1082.19
632.00	1080.20
632.35	1081.02
632.69	1081.96
633.04	1083.15
633.38	1083.93
633.73	1084.11
634.07	1084.23
634.42	1084.25
634.76	1084.11
635.11	1084.91
635.45	1085.68
635.79	1087.11
636.14	1083.20
636.48	1083.18
636.83	1083.41
637.17	1082.76
637.52	1082.40
637.86	1083.53
638.21	1083.79
638.55	1081.91
638.89	1084.21
639.24	1084.67
639.58	1088.70
639.93	1086.62
640.27	1089.85
640.61	1090.15
640.96	1088.61
641.30	1084.67
641.65	1083.22
641.99	1080.34
642.33	1080.91
642.68	1079.69
643.02	1078.24
643.37	1079.20
643.71	1076.18
644.05	1072.69
644.40	1074.45
644.74	1074.26
645.08	1076.95
645.43	1080.56
645.77	1081.80
646.11	1080.27
646.46	1081.28
646.80	1079.55
647.14	1080.09
647.49	1081.54
647.83	1086.06
648.17	1087.90
648.52	1087.44
648.86	1087.18
649.20	1086.64
649.55	1081.26
649.89	1080.51
650.23	1082.45
650.57	1083.74
650.92	1080.65
651.26	1082.64
651.60	1084.44
651.95	1084.51
652.29	1083.69
652.63	1085.99
652.97	1084.81
653.32	1085.42
653.66	1084.91
654.00	1084.72
654.34	1082.73
654.69	1081.96
655.03	1079.13
655.37	1079.92
655.71	1081.12
656.05	1082.73
656.40	1084.16
656.74	1084.39
657.08	1082.08
657.42	1080.58
657.76	1079.27
658.11	1081.63
658.45	1083.62
658.79	1082.97
659.13	1081.84
659.47	1081.73
659.82	1078.28
660.16	1076.48
660.50	1079.71
660.84	1081.70
661.18	1080.46
661.52	1080.65
661.87	1081.14
662.21	1081.26
662.55	1080.91
662.89	1083.71
663.23	1084.42
663.57	1085.75
663.91	1084.70
664.25	1083.97
664.60	1085.96
664.94	1085.54
665.28	1086.50
665.62	1086.48
665.96	1084.14
666.30	1082.85
666.64	1084.21
666.98	1079.90
667.32	1078.96
667.66	1080.79
668.01	1079.31
668.35	1078.73
668.69	1080.81
669.03	1077.21
669.37	1079.50
669.71	1079.74
670.05	1079.92
670.39	1079.01
670.73	1081.42
671.07	1076.34
671.41	1078.10
671.75	1079.48
672.09	1082.26
672.43	1085.68
672.77	1086.24
673.11	1084.37
673.45	1083.64
673.79	1081.77
674.13	1079.15
674.47	1082.19
674.81	1080.91
675.15	1079.31
675.49	1077.28
675.83	1078.50
676.17	1078.40
676.51	1082.01
676.85	1080.23
677.19	1085.68
677.53	1085.87
677.87	1084.89
678.21	1084.25
678.55	1088.70
678.89	1084.77
679.23	1085.28
679.57	1086.34
679.90	1081.44
680.24	1080.51
680.58	1082.40
680.92	1078.87
681.26	1079.95
681.60	1084.81
681.94	1083.43
682.28	1081.42
682.62	1082.15
682.96	1079.57
683.29	1078.05
683.63	1077.42
683.97	1077.04
684.31	1078.31
684.65	1079.34
684.99	1080.98
685.33	1080.02
685.67	1079.43
686.00	1078.54
686.34	1078.45
686.68	1075.64
687.02	1077.82
687.36	1079.78
687.70	1080.30
688.03	1081.00
688.37	1081.44
688.71	1079.15
689.05	1077.47
689.39	1077.33
689.72	1076.88
690.06	1077.86
690.40	1079.74
690.74	1079.74
691.08	1081.16
691.41	1080.11
691.75	1080.74
692.09	1080.51
692.43	1081.58
692.76	1079.71
693.10	1081.33
693.44	1079.41
693.78	1079.20
694.11	1078.99
694.45	1079.74
694.79	1077.14
695.13	1075.31
695.46	1075.05
695.80	1076.08
696.14	1078.85
696.48	1080.58
696.81	1083.86
697.15	1084.79
697.49	1085.21
697.82	1083.67
698.16	1085.00
698.50	1084.37
698.83	1083.41
699.17	1085.19
699.51	1084.70
699.84	1081.61
700.18	1079.95
700.52	1082.76
700.85	1079.74
701.19	1081.82
701.53	1083.41
701.86	1084.70
702.20	1083.15
702.54	1082.94
702.87	1082.66
703.21	1086.27
703.55	1088.19
703.88	1085.91
704.22	1088.33
704.55	1088.61
704.89	1083.27
705.23	1082.36
705.56	1086.15
705.90	1084.84
706.23	1084.84
706.57	1085.82
706.91	1083.74
707.24	1082.83
707.58	1081.98
707.91	1080.39
708.25	1079.48
708.58	1079.53
708.92	1078.52
709.26	1077.91
709.59	1076.55
709.93	1078.78
710.26	1079.83
710.60	1080.86
710.93	1080.70
711.27	1083.11
711.60	1081.84
711.94	1084.11
712.27	1084.77
712.61	1087.44
712.94	1083.71
713.28	1084.51
713.61	1083.36
713.95	1081.16
714.28	1079.31
714.62	1081.30
714.95	1081.77
715.29	1080.02
715.62	1078.33
715.96	1075.99
716.29	1077.18
716.63	1075.99
716.96	1075.38
717.29	1076.88
717.63	1077.82
717.96	1075.97
718.30	1075.71
718.63	1078.14
718.97	1079.03
719.30	1081.51
719.63	1086.64
719.97	1087.30
720.30	1087.74
720.64	1087.13
720.97	1086.24
721.30	1082.33
721.64	1084.65
721.97	1084.96
722.31	1084.21
722.64	1082.64
722.97	1081.14
723.31	1079.17
723.64	1078.61
723.97	1079.36
724.31	1082.47
724.64	1083.57
724.98	1085.96
725.31	1084.84
725.64	1086.55
725.98	1085.24
726.31	1085.94
726.64	1081.63
726.97	1084.49
727.31	1084.89
727.64	1084.51
727.97	1082.85
728.31	1084.72
728.64	1081.09
728.97	1079.43
729.31	1077.09
729.64	1078.94
729.97	1079.76
730.30	1078.33
730.64	1077.75
730.97	1080.86
731.30	1078.00
731.63	1075.17
731.97	1076.93
732.30	1077.07
732.63	1076.58
732.96	1077.47
733.30	1077.11
733.63	1079.57
733.96	1081.73
734.29	1080.11
734.63	1079.20
734.96	1081.44
735.29	1081.49
735.62	1079.36
735.95	1078.80
736.29	1079.92
736.62	1081.77
736.95	1081.19
737.28	1081.16
737.61	1082.83
737.94	1081.54
738.28	1078.66
738.61	1077.51
738.94	1076.44
739.27	1073.65
739.60	1076.48
739.93	1077.86
740.27	1079.99
740.60	1081.75
740.93	1082.78
741.26	1084.77
741.59	1082.54
741.92	1081.61
742.25	1081.12
742.58	1083.06
742.91	1080.65
743.25	1084.91
743.58	1083.43
743.91	1083.46
744.24	1084.44
744.57	1083.08
744.90	1082.80
745.23	1083.32
745.56	1084.14
745.89	1083.06
746.22	1083.36
746.55	1081.96
746.88	1083.27
747.21	1079.92
747.54	1079.46
747.87	1077.28
748.20	1075.41
748.53	1072.41
748.87	1075.55
749.20	1076.79
749.53	1076.93
749.86	1077.98
750.19	1077.75
750.52	1077.98
750.85	1077.00
751.18	1080.23
751.51	1081.68
751.84	1081.91
752.16	1079.31
752.49	1081.51
752.82	1080.98
753.15	1080.86
753.48	1080.70
753.81	1082.52
754.14	1079.38
754.47	1081.14
754.80	1079.57
755.13	1080.70
755.46	1081.09
755.79	1081.80
756.12	1082.38
756.45	1082.17
756.78	1082.69
757.11	1085.12
757.43	1085.87
757.76	1081.30
758.09	1082.45
758.42	1082.76
758.75	1077.98
759.08	1077.84
759.41	1078.85
759.74	1078.24
760.07	1078.17
760.39	1083.79
760.72	1084.49
761.05	1087.51
761.38	1089.73
761.71	1088.40
762.04	1080.81
762.36	1076.93
762.69	1075.29
763.02	1071.01
763.35	1069.95
763.68	1073.42
764.01	1077.75
764.33	1077.77
764.66	1079.10
764.99	1078.43
765.32	1076.88
765.65	1074.98
765.97	1075.36
766.30	1075.87
766.63	1079.27
766.96	1081.05
767.28	1082.47
767.61	1082.45
767.94	1082.45
768.27	1081.37
768.59	1079.85
768.92	1081.00
769.25	1080.81
769.58	1080.44
769.90	1082.17
770.23	1084.91
770.56	1085.14
770.89	1082.97
771.21	1083.32
771.54	1081.66
771.87	1079.17
772.19	1076.58
772.52	1075.10
772.85	1077.14
773.17	1076.53
773.50	1080.53
773.83	1078.40
774.15	1080.09
774.48	1078.87
774.81	1080.91
775.13	1075.69
775.46	1077.28
775.79	1078.87
776.11	1076.30
776.44	1073.91
776.77	1076.79
777.09	1076.20
777.42	1074.26
777.74	1077.54
778.07	1077.00
778.40	1076.86
778.72	1078.66
779.05	1080.81
779.37	1078.96
779.70	1078.40
780.03	1079.48
780.35	1079.64
780.68	1077.23
781.00	1076.88
781.33	1077.04
781.65	1074.61
781.98	1074.75
782.31	1076.23
782.63	1078.99
782.96	1081.26
783.28	1081.84
783.61	1081.61
783.93	1080.60
784.26	1076.88
784.58	1078.36
784.91	1077.70
785.23	1077.77
785.56	1080.44
785.88	1082.50
786.21	1080.32
786.53	1080.91
786.86	1082.24
787.18	1082.57
787.51	1084.37
787.83	1082.10
788.16	1082.94
788.48	1080.13
788.81	1075.97
789.13	1072.01
789.46	1077.77
789.78	1075.52
790.10	1077.56
790.43	1081.54
790.75	1082.52
791.08	1076.41
791.40	1079.95
791.73	1075.87
792.05	1073.63
792.37	1075.13
792.70	1077.58
793.02	1073.56
793.35	1076.11
793.67	1076.44
793.99	1075.24
794.32	1076.90
794.64	1080.27
794.96	1077.89
795.29	1077.75
795.61	1078.96
795.93	1077.72
796.26	1076.27
796.58	1078.87
796.91	1078.96
797.23	1076.76
797.55	1080.18
797.87	1081.94
798.20	1080.86
798.52	1079.57
798.84	1080.39
799.17	1077.54
799.49	1073.32
799.81	1073.51
800.14	1073.16
800.46	1074.68
800.78	1071.45
801.10	1075.31
801.43	1076.46
801.75	1078.85
802.07	1079.41
802.40	1082.87
802.72	1078.26
803.04	1077.11
803.36	1078.52
803.69	1075.57
804.01	1073.28
804.33	1077.09
804.65	1080.79
804.97	1079.55
805.30	1080.46
805.62	1081.21
805.94	1079.78
806.26	1075.94
806.58	1074.47
806.91	1075.34
807.23	1074.42
807.55	1074.35
807.87	1076.25
808.19	1076.69
808.52	1077.30
808.84	1080.13
809.16	1084.02
809.48	1083.11
809.80	1081.87
810.12	1080.74
810.44	1078.71
810.77	1076.20
811.09	1074.91
811.41	1080.23
811.73	1081.47
812.05	1081.68
812.37	1081.68
812.69	1084.79
813.01	1084.00
813.33	1082.03
813.66	1082.31
813.98	1083.20
814.30	1081.40
814.62	1079.55
814.94	1081.40
815.26	1076.97
815.58	1075.36
815.90	1074.12
816.22	1071.52
816.54	1072.74
816.86	1077.21
817.18	1079.90
817.50	1080.67
817.82	1081.05
818.14	1079.71
818.46	1078.82
818.78	1077.40
819.10	1076.39
819.42	1075.87
819.74	1073.23
820.06	1075.83
820.38	1071.38
820.70	1073.18
821.02	1072.36
821.34	1072.55
821.66	1069.95
821.98	1074.91
822.30	1072.22
822.62	1072.39
822.94	1074.24
823.26	1078.52
823.58	1075.31
823.90	1075.99
824.22	1077.04
824.54	1079.67
824.86	1077.93
825.18	1080.37
825.50	1084.56
825.81	1086.83
826.13	1084.63
826.45	1080.20
826.77	1077.84
827.09	1072.67
827.41	1067.07
827.73	1068.97
828.05	1071.26
828.36	1072.32
828.68	1073.35
829.00	1078.50
829.32	1073.23
829.64	1074.89
829.96	1073.04
830.28	1074.68
830.59	1074.14
830.91	1077.16
831.23	1074.98
831.55	1078.59
831.87	1079.06
832.19	1080.16
832.50	1080.84
832.82	1082.29
833.14	1080.77
833.46	1080.46
833.78	1077.25
834.09	1076.41
834.41	1077.61
834.73	1079.53
835.05	1077.68
835.36	1077.82
835.68	1079.08
836.00	1077.91
836.32	1075.22
836.63	1077.23
836.95	1080.32
837.27	1077.25
837.59	1077.33
837.90	1079.95
838.22	1082.17
838.54	1081.87
838.85	1081.26
839.17	1080.93
839.49	1079.22
839.80	1077.11
840.12	1077.54
840.44	1078.71
840.76	1078.57
841.07	1078.68
841.39	1076.08
841.71	1077.04
842.02	1081.16
842.34	1082.66
842.65	1085.26
842.97	1090.13
843.29	1087.46
843.60	1084.51
843.92	1082.47
844.24	1077.89
844.55	1076.30
844.87	1075.97
845.18	1072.62
845.50	1071.75
845.82	1076.32
846.13	1074.10
846.45	1072.60
846.76	1077.30
847.08	1079.83
847.40	1080.60
847.71	1082.15
848.03	1085.87
848.34	1084.39
848.66	1082.38
848.97	1078.54
849.29	1079.27
849.60	1078.87
849.92	1079.34
850.24	1078.96
850.55	1078.57
850.87	1072.90
851.18	1073.14
851.50	1073.00
851.81	1073.67
852.13	1076.27
852.44	1080.93
852.76	1079.31
853.07	1078.73
853.39	1077.37
853.70	1078.52
854.01	1079.81
854.33	1081.68
854.64	1081.51
854.96	1083.69
855.27	1080.63
855.59	1078.73
855.90	1076.46
856.22	1076.30
856.53	1076.88
856.84	1074.66
857.16	1076.23
857.47	1076.86
857.79	1077.75
858.10	1075.45
858.41	1076.83
858.73	1075.78
859.04	1074.94
859.36	1075.62
859.67	1078.45
859.98	1080.72
860.30	1079.83
860.61	1079.76
860.92	1078.82
861.24	1077.28
861.55	1078.96
861.87	1081.49
862.18	1082.90
862.49	1081.82
862.81	1083.43
863.12	1077.98
863.43	1074.38
863.74	1070.47
864.06	1069.74
864.37	1066.89
864.68	1071.19
865.00	1074.10
865.31	1077.30
865.62	1080.93
865.94	1080.84
866.25	1079.24
866.56	1077.72
866.87	1079.71
867.19	1078.17
867.50	1080.37
867.81	1082.19
868.12	1083.43
868.44	1078.43
868.75	1075.36
869.06	1076.88
869.37	1073.42
869.68	1074.98
870.00	1075.50
870.31	1078.21
870.62	1075.36
870.93	1077.58
871.24	1074.07
871.56	1077.75
871.87	1075.85
872.18	1076.88
872.49	1074.56
872.80	1073.74
873.12	1073.93
873.43	1073.88
873.74	1074.61
874.05	1076.11
874.36	1077.58
874.67	1074.52
874.98	1075.36
875.29	1073.93
875.61	1073.44
875.92	1074.42
876.23	1076.15
876.54	1078.28
876.85	1078.28
877.16	1084.42
877.47	1085.35
877.78	1084.46
878.09	1081.42
878.40	1082.45
878.72	1076.69
879.03	1073.91
879.34	1076.48
879.65	1076.65
879.96	1075.94
880.27	1076.95
880.58	1078.19
880.89	1076.46
881.20	1080.13
881.51	1077.91
881.82	1076.83
882.13	1078.17
882.44	1075.62
882.75	1070.84
883.06	1073.49
883.37	1077.49
883.68	1075.78
883.99	1079.83
884.30	1081.28
884.61	1081.12
884.92	1080.27
885.23	1079.90
885.54	1080.16
885.85	1083.25
886.16	1081.54
886.47	1077.23
886.78	1076.62
887.08	1073.37
887.39	1070.89
887.70	1076.86
888.01	1079.43
888.32	1082.40
888.63	1085.33
888.94	1087.16
889.25	1082.31
889.56	1083.95
889.87	1084.00
890.17	1081.70
890.48	1079.81
890.79	1076.20
891.10	1074.31
891.41	1074.33
891.72	1072.46
892.03	1073.63
892.34	1076.44
892.64	1075.45
892.95	1073.28
893.26	1075.13
893.57	1076.44
893.88	1077.00
894.18	1078.05
894.49	1077.84
894.80	1080.46
895.11	1076.90
895.42	1077.77
895.72	1075.66
896.03	1075.64
896.34	1072.41
896.65	1073.14
896.96	1072.71
897.26	1073.51
897.57	1072.22
897.88	1074.96
898.19	1074.94
898.49	1073.86
898.80	1075.43
899.11	1076.95
899.41	1075.10
899.72	1073.63
900.03	1076.18
900.34	1075.90
900.64	1074.54
900.95	1074.82
901.26	1080.11
901.56	1080.37
901.87	1082.38
902.18	1086.43
902.48	1088.77
902.79	1086.57
903.10	1082.66
903.40	1077.25
903.71	1076.01
904.02	1076.37
904.32	1073.95
904.63	1077.42
904.94	1076.95
905.24	1073.14
905.55	1069.48
905.85	1070.40
906.16	1072.29
906.47	1075.05
906.77	1078.43
907.08	1079.48
907.38	1077.28
907.69	1073.79
908.00	1074.80
908.30	1076.74
908.61	1077.54
908.91	1080.65
909.22	1081.54
909.52	1079.76
909.83	1077.58
910.14	1076.58
910.44	1076.81
910.75	1075.55
911.05	1073.39
911.36	1075.34
911.66	1075.10
911.97	1073.25
912.27	1072.81
912.58	1076.39
912.88	1076.01
913.19	1077.61
913.49	1082.76
913.80	1086.38
914.10	1085.38
914.41	1082.80
914.71	1081.23
915.01	1076.11
915.32	1072.85
915.62	1074.87
915.93	1074.33
916.23	1075.83
916.54	1078.89
916.84	1080.34
917.15	1078.38
917.45	1079.92
917.75	1080.20
918.06	1079.17
918.36	1079.36
918.67	1079.36
918.97	1080.18
919.27	1082.59
919.58	1082.87
919.88	1080.81
920.18	1081.89
920.49	1081.98
920.79	1078.94
921.10	1080.18
921.40	1080.41
921.70	1081.00
922.01	1078.57
922.31	1080.41
922.61	1078.43
922.92	1077.75
923.22	1076.62
923.52	1077.77
923.82	1077.77
924.13	1079.34
924.43	1080.51
924.73	1079.92
925.04	1081.82
925.34	1077.79
925.64	1074.12
925.94	1075.03
926.25	1072.41
926.55	1071.99
926.85	1073.04
927.15	1075.48
927.46	1076.62
927.76	1080.98
928.06	1081.12
928.36	1082.24
928.67	1082.61
928.97	1081.42
929.27	1080.67
929.57	1082.19
929.87	1083.53
930.18	1085.84
930.48	1086.20
930.78	1088.82
931.08	1083.55
931.38	1085.89
931.69	1084.65
931.99	1085.77
932.29	1084.04
932.59	1087.11
932.89	1081.00
933.19	1077.04
933.49	1076.15
933.80	1073.60
934.10	1072.64
934.40	1075.08
934.70	1077.16
935.00	1075.87
935.30	1080.27
935.60	1080.86
935.90	1080.11
936.20	1084.09
936.50	1085.82
936.81	1081.33
937.11	1080.70
937.41	1080.51
937.71	1076.20
938.01	1074.59
938.31	1075.62
938.61	1077.04
938.91	1076.13
939.21	1076.95
939.51	1078.71
939.81	1079.71
940.11	1079.24
940.41	1083.06
940.71	1086.55
941.01	1084.46
941.31	1086.66
941.61	1086.92
941.91	1084.70
942.21	1082.38
942.51	1085.80
942.81	1083.97
943.11	1083.32
943.41	1082.90
943.71	1082.03
944.01	1078.19
944.31	1076.34
944.61	1075.62
944.90	1075.34
945.20	1073.04
945.50	1074.07
945.80	1073.91
946.10	1075.15
946.40	1076.74
946.70	1078.26
947.00	1078.92
947.30	1082.03
947.60	1081.96
947.89	1080.77
948.19	1082.15
948.49	1081.87
948.79	1078.96
949.09	1076.46
949.39	1076.51
949.69	1076.95
949.98	1075.99
950.28	1080.27
950.58	1082.31
950.88	1082.29
951.18	1079.99
951.48	1080.46
951.77	1077.11
952.07	1075.36
952.37	1073.37
952.67	1074.35
952.97	1075.59
953.26	1077.40
953.56	1077.35
953.86	1077.23
954.16	1072.88
954.45	1072.27
954.75	1069.18
955.05	1071.01
955.35	1072.53
955.64	1078.54
955.94	1080.77
956.24	1082.36
956.54	1085.35
956.83	1086.45
957.13	1084.07
957.43	1079.48
957.72	1078.59
958.02	1075.24
958.32	1075.78
958.61	1076.11
958.91	1078.80
959.21	1081.63
959.50	1081.42
959.80	1080.88
960.10	1081.21
960.39	1078.73
960.69	1073.88
960.99	1072.13
961.28	1070.30
961.58	1068.92
961.87	1067.82
962.17	1071.68
962.47	1072.04
962.76	1073.44
963.06	1073.93
963.36	1075.36
963.65	1075.66
963.95	1077.40
964.24	1078.85
964.54	1078.59
964.83	1078.61
965.13	1078.03
965.42	1079.85
965.72	1079.92
966.02	1078.54
966.31	1077.33
966.61	1077.33
966.90	1074.45
967.20	1071.80
967.49	1074.80
967.79	1077.11
968.08	1074.00
968.38	1076.41
968.67	1077.09
968.97	1076.01
969.26	1074.98
969.56	1077.96
969.85	1074.21
970.15	1073.63
970.44	1072.71
970.74	1074.98
971.03	1072.36
971.32	1071.52
971.62	1069.93
971.91	1070.80
972.21	1069.93
972.50	1073.16
972.80	1080.20
973.09	1079.74
973.38	1077.58
973.68	1074.96
973.97	1072.25
974.27	1068.41
974.56	1070.56
974.85	1073.07
975.15	1075.38
975.44	1077.02
975.73	1076.65
976.03	1076.62
976.32	1073.51
976.61	1074.05
976.91	1075.41
977.20	1079.10
977.49	1078.52
977.79	1083.13
978.08	1083.79
978.37	1083.60
978.67	1081.02
978.96	1084.39
979.25	1082.59
979.55	1082.03
979.84	1079.06
980.13	1078.07
980.42	1075.94
980.72	1075.83
981.01	1073.86
981.30	1078.21
981.59	1078.92
981.89	1077.58
982.18	1075.24
982.47	1076.76
982.76	1072.81
983.06	1072.32
983.35	1074.52
983.64	1077.25
983.93	1073.21
984.22	1073.09
984.52	1073.53
984.81	1071.31
985.10	1069.93
985.39	1071.40
985.68	1073.49
985.97	1073.53
986.27	1077.00
986.56	1081.12
986.85	1081.28
987.14	1079.29
987.43	1077.56
987.72	1077.49
988.01	1076.39
988.31	1075.43
988.60	1077.65
988.89	1077.89
989.18	1077.58
989.47	1074.59
989.76	1075.64
990.05	1071.17
990.34	1070.42
990.63	1067.49
990.92	1070.54
991.21	1073.21
991.51	1076.11
991.80	1077.77
992.09	1079.20
992.38	1079.03
992.67	1078.31
992.96	1079.01
993.25	1079.01
993.54	1078.10
993.83	1075.48
994.12	1075.71
994.41	1074.91
994.70	1074.96
994.99	1076.65
995.28	1079.50
995.57	1078.45
995.86	1078.99
996.15	1079.95
996.44	1080.60
996.73	1078.71
997.02	1080.63
997.31	1081.94
997.59	1080.91
997.88	1077.21
998.17	1077.89
998.46	1076.25
998.75	1073.91
999.04	1071.40
999.33	1073.70
999.62	1073.18
999.91	1074.14
1000.20	1075.85
1000.49	1079.95
1000.77	1080.44
1001.06	1080.13
1001.35	1078.82
1001.64	1079.57
1001.93	1077.35
1002.22	1077.72
1002.51	1076.53
1002.79	1075.83
1003.08	1071.99
1003.37	1071.82
1003.66	1070.96
1003.95	1073.65
1004.23	1075.17
1004.52	1081.09
1004.81	1081.56
1005.10	1078.64
1005.39	1077.37
1005.67	1077.14
1005.96	1073.79
1006.25	1071.99
1006.54	1073.72
1006.83	1074.19
1007.11	1073.44
1007.40	1072.55
1007.69	1075.48
1007.97	1075.94
1008.26	1074.59
1008.55	1076.69
1008.84	1079.17
1009.12	1076.55
1009.41	1081.02
1009.70	1082.01
1009.98	1078.82
1010.27	1076.53
1010.56	1079.57
1010.85	1073.30
1011.13	1073.51
1011.42	1077.30
1011.71	1075.31
1011.99	1073.16
1012.28	1077.56
1012.56	1077.89
1012.85	1075.10
1013.14	1076.04
1013.42	1077.49
1013.71	1078.45
1014.00	1081.05
1014.28	1081.51
1014.57	1083.11
1014.85	1082.97
1015.14	1080.53
1015.43	1075.90
1015.71	1076.04
1016.00	1075.50
1016.28	1074.28
1016.57	1072.62
1016.85	1073.93
1017.14	1076.11
1017.43	1075.59
1017.71	1074.07
1018.00	1074.33
1018.28	1074.70
1018.57	1073.88
1018.85	1075.48
1019.14	1076.88
1019.42	1076.88
1019.71	1076.81
1019.99	1074.61
1020.28	1073.93
1020.56	1075.17
1020.85	1074.47
1021.13	1075.80
1021.42	1075.94
1021.70	1077.09
1021.99	1078.87
1022.27	1079.74
1022.55	1088.00
1022.84	1072.67
>>>>>End Processed Spectral Data<<<<<
