SpectraSuite Data File
++++++++++++++++++++++++++++++++++++
Date: Mon Aug 26 10:21:54 PDT 2019
User: corrico
Dark Spectrum Present: No
Reference Spectrum Present: No
Number of Sampled Component Spectra: 1
Spectrometers: USB2+H06089
Integration Time (usec): 2000 (USB2+H06089)
Spectra Averaged: 20 (USB2+H06089)
Boxcar Smoothing: 2 (USB2+H06089)
Correct for Electrical Dark: No (USB2+H06089)
Strobe/Lamp Enabled: No (USB2+H06089)
Correct for Detector Non-linearity: No (USB2+H06089)
Correct for Stray Light: No (USB2+H06089)
Number of Pixels in Processed Spectrum: 2048
>>>>>Begin Processed Spectral Data<<<<<
339.70	1034.17
340.07	1034.17
340.45	999.36
340.82	973.76
341.19	949.06
341.57	921.54
341.94	910.75
342.31	900.94
342.69	898.84
343.06	895.23
343.43	894.76
343.81	893.01
344.18	895.28
344.55	897.15
344.93	902.14
345.30	907.99
345.67	916.90
346.04	923.83
346.42	931.72
346.79	940.73
347.16	949.49
347.54	958.85
347.91	970.36
348.28	980.08
348.65	990.42
349.03	997.23
349.40	1003.83
349.77	1008.42
350.14	1018.91
350.52	1023.98
350.89	1035.69
351.26	1042.66
351.63	1049.19
352.01	1050.48
352.38	1054.55
352.75	1056.14
353.12	1060.73
353.50	1066.51
353.87	1069.48
354.24	1069.20
354.61	1070.47
354.98	1070.58
355.36	1069.60
355.73	1072.64
356.10	1075.27
356.47	1077.44
356.84	1078.26
357.22	1078.31
357.59	1076.48
357.96	1080.58
358.33	1079.38
358.70	1078.47
359.08	1080.34
359.45	1083.11
359.82	1079.22
360.19	1077.86
360.56	1079.60
360.94	1076.13
361.31	1071.75
361.68	1070.77
362.05	1068.24
362.42	1064.99
362.79	1066.18
363.16	1065.69
363.54	1066.21
363.91	1068.01
364.28	1067.66
364.65	1070.02
365.02	1069.79
365.39	1069.30
365.76	1069.46
366.14	1069.11
366.51	1065.60
366.88	1067.19
367.25	1067.10
367.62	1067.24
367.99	1065.22
368.36	1063.40
368.73	1061.20
369.10	1061.43
369.48	1061.08
369.85	1065.65
370.22	1070.33
370.59	1071.24
370.96	1070.47
371.33	1065.72
371.70	1063.68
372.07	1057.85
372.44	1060.82
372.81	1062.18
373.18	1065.90
373.55	1067.78
373.93	1069.39
374.30	1065.58
374.67	1065.25
375.04	1065.01
375.41	1062.74
375.78	1067.78
376.15	1070.21
376.52	1069.60
376.89	1071.36
377.26	1073.67
377.63	1070.84
378.00	1069.70
378.37	1069.48
378.74	1068.97
379.11	1065.46
379.48	1063.94
379.85	1065.04
380.22	1064.34
380.59	1067.17
380.96	1069.30
381.33	1071.97
381.70	1072.57
382.07	1071.99
382.44	1070.05
382.81	1070.91
383.18	1069.32
383.55	1069.13
383.92	1070.98
384.29	1070.28
384.66	1067.89
385.03	1068.69
385.40	1066.70
385.77	1067.94
386.14	1068.29
386.51	1071.15
386.88	1070.65
387.25	1074.31
387.62	1073.79
387.99	1074.28
388.36	1071.94
388.73	1069.98
389.10	1068.78
389.46	1069.23
389.83	1070.28
390.20	1071.52
390.57	1074.38
390.94	1073.53
391.31	1073.16
391.68	1071.36
392.05	1071.73
392.42	1073.39
392.79	1073.37
393.16	1071.22
393.53	1069.65
393.89	1066.82
394.26	1065.20
394.63	1066.04
395.00	1068.57
395.37	1070.26
395.74	1074.68
396.11	1073.74
396.48	1072.90
396.84	1073.77
397.21	1076.01
397.58	1075.99
397.95	1075.90
398.32	1077.44
398.69	1071.33
399.06	1068.97
399.42	1067.49
399.79	1070.49
400.16	1070.21
400.53	1076.18
400.90	1076.88
401.27	1077.37
401.64	1075.55
402.00	1076.39
402.37	1076.76
402.74	1077.14
403.11	1079.34
403.48	1078.96
403.84	1079.24
404.21	1075.57
404.58	1078.19
404.95	1078.05
405.32	1081.02
405.68	1082.40
406.05	1082.47
406.42	1080.13
406.79	1080.79
407.16	1078.73
407.52	1076.93
407.89	1078.36
408.26	1078.57
408.63	1074.33
408.99	1074.54
409.36	1071.01
409.73	1072.08
410.10	1070.26
410.47	1073.02
410.83	1072.55
411.20	1075.17
411.57	1074.61
411.94	1075.03
412.30	1073.18
412.67	1072.60
413.04	1073.98
413.40	1073.93
413.77	1076.27
414.14	1077.42
414.51	1077.42
414.87	1077.21
415.24	1077.37
415.61	1075.29
415.97	1075.31
416.34	1074.40
416.71	1073.95
417.08	1075.66
417.44	1077.04
417.81	1078.21
418.18	1080.72
418.54	1080.09
418.91	1079.17
419.28	1079.10
419.64	1077.98
420.01	1078.43
420.38	1080.37
420.74	1084.72
421.11	1086.87
421.48	1090.71
421.84	1092.54
422.21	1092.16
422.58	1090.99
422.94	1091.46
423.31	1086.62
423.68	1083.34
424.04	1083.64
424.41	1083.25
424.77	1084.74
425.14	1089.96
425.51	1091.20
425.87	1093.22
426.24	1092.40
426.61	1091.72
426.97	1092.28
427.34	1096.82
427.70	1096.99
428.07	1099.89
428.44	1099.09
428.80	1103.14
429.17	1103.16
429.53	1103.96
429.90	1106.42
430.27	1108.97
430.63	1106.96
431.00	1110.42
431.36	1115.73
431.73	1118.94
432.09	1122.87
432.46	1127.23
432.83	1129.78
433.19	1127.48
433.56	1127.44
433.92	1130.31
434.29	1134.27
434.65	1140.54
435.02	1147.92
435.38	1154.28
435.75	1161.87
436.11	1165.77
436.48	1168.49
436.84	1177.01
437.21	1181.95
437.57	1188.15
437.94	1197.82
438.30	1208.02
438.67	1216.66
439.03	1226.91
439.40	1237.07
439.76	1245.75
440.13	1257.31
440.49	1271.68
440.86	1288.75
441.22	1305.67
441.59	1325.75
441.95	1342.74
442.32	1355.66
442.68	1369.40
443.05	1383.61
443.41	1396.04
443.78	1415.60
444.14	1440.72
444.51	1467.33
444.87	1494.50
445.24	1524.27
445.60	1550.93
445.96	1577.29
446.33	1608.35
446.69	1642.38
447.06	1677.74
447.42	1713.67
447.79	1748.52
448.15	1789.95
448.51	1830.65
448.88	1879.54
449.24	1929.44
449.61	1984.73
449.97	2036.87
450.33	2091.78
450.70	2141.08
451.06	2197.69
451.43	2259.88
451.79	2330.14
452.15	2403.73
452.52	2484.22
452.88	2570.40
453.24	2659.06
453.61	2755.75
453.97	2848.08
454.34	2938.29
454.70	3041.92
455.06	3151.16
455.43	3260.37
455.79	3374.16
456.15	3498.52
456.52	3615.45
456.88	3750.45
457.24	3881.61
457.61	4029.02
457.97	4185.14
458.33	4341.86
458.70	4501.44
459.06	4654.83
459.42	4828.22
459.79	4986.65
460.15	5163.17
460.51	5328.42
460.88	5488.56
461.24	5626.51
461.60	5787.33
461.96	5926.28
462.33	6057.42
462.69	6202.98
463.05	6366.35
463.42	6518.49
463.78	6657.12
464.14	6795.46
464.50	6940.20
464.87	7029.45
465.23	7084.26
465.59	7161.78
465.95	7218.77
466.32	7269.59
466.68	7343.10
467.04	7399.70
467.40	7440.35
467.77	7472.49
468.13	7468.86
468.49	7456.88
468.85	7452.08
469.22	7432.02
469.58	7393.47
469.94	7375.94
470.30	7337.39
470.66	7287.19
471.03	7202.72
471.39	7144.49
471.75	7035.67
472.11	6918.58
472.47	6822.01
472.84	6729.25
473.20	6618.10
473.56	6534.26
473.92	6447.97
474.28	6381.19
474.65	6314.46
475.01	6240.76
475.37	6161.55
475.73	6091.57
476.09	5993.06
476.45	5903.77
476.81	5827.72
477.18	5729.73
477.54	5647.34
477.90	5570.52
478.26	5488.95
478.62	5410.29
478.98	5366.38
479.34	5311.10
479.71	5245.30
480.07	5187.59
480.43	5143.12
480.79	5077.93
481.15	5014.18
481.51	4964.60
481.87	4918.17
482.23	4837.28
482.59	4765.75
482.96	4705.88
483.32	4640.00
483.68	4583.33
484.04	4537.92
484.40	4487.11
484.76	4431.73
485.12	4367.53
485.48	4298.56
485.84	4229.51
486.20	4166.48
486.56	4099.52
486.92	4043.53
487.28	3976.13
487.64	3913.75
488.00	3846.90
488.37	3777.27
488.73	3705.47
489.09	3641.80
489.45	3576.10
489.81	3523.16
490.17	3464.62
490.53	3404.29
490.89	3346.40
491.25	3289.55
491.61	3225.61
491.97	3162.74
492.33	3098.89
492.69	3030.53
493.05	2965.93
493.41	2906.41
493.77	2851.31
494.13	2804.48
494.49	2756.92
494.85	2708.75
495.21	2662.36
495.57	2619.88
495.93	2574.12
496.29	2531.80
496.64	2485.79
497.00	2439.00
497.36	2396.99
497.72	2353.03
498.08	2311.51
498.44	2282.44
498.80	2246.56
499.16	2214.76
499.52	2185.33
499.88	2160.48
500.24	2126.89
500.60	2099.41
500.96	2067.09
501.32	2037.46
501.68	2004.46
502.03	1977.57
502.39	1954.70
502.75	1926.14
503.11	1900.80
503.47	1876.50
503.83	1854.15
504.19	1829.18
504.55	1810.83
504.91	1788.73
505.26	1766.33
505.62	1746.30
505.98	1724.20
506.34	1700.35
506.70	1680.11
507.06	1662.41
507.42	1640.74
507.78	1621.64
508.13	1603.85
508.49	1587.70
508.85	1570.12
509.21	1554.14
509.57	1540.12
509.93	1523.13
510.28	1509.48
510.64	1497.40
511.00	1480.46
511.36	1464.87
511.72	1454.60
512.07	1438.63
512.43	1425.57
512.79	1417.62
513.15	1407.27
513.51	1393.88
513.86	1384.80
514.22	1376.59
514.58	1366.26
514.94	1356.20
515.30	1349.76
515.65	1340.75
516.01	1327.83
516.37	1318.85
516.73	1312.78
517.08	1307.61
517.44	1301.01
517.80	1298.62
518.16	1290.64
518.51	1284.42
518.87	1274.02
519.23	1269.88
519.59	1262.37
519.94	1257.55
520.30	1253.78
520.66	1253.12
521.01	1245.31
521.37	1241.94
521.73	1239.78
522.09	1235.24
522.44	1227.12
522.80	1222.02
523.16	1216.10
523.51	1209.94
523.87	1203.97
524.23	1199.99
524.58	1197.18
524.94	1194.96
525.30	1190.40
525.65	1184.38
526.01	1180.36
526.37	1178.11
526.72	1173.85
527.08	1171.09
527.44	1166.97
527.79	1162.85
528.15	1158.40
528.51	1154.09
528.86	1152.01
529.22	1153.63
529.58	1151.82
529.93	1153.04
530.29	1149.74
530.65	1146.02
531.00	1140.82
531.36	1138.83
531.71	1133.08
532.07	1133.05
532.43	1134.04
532.78	1133.85
533.14	1134.53
533.49	1136.33
533.85	1138.20
534.21	1134.48
534.56	1134.67
534.92	1133.80
535.27	1130.34
535.63	1123.71
535.98	1122.22
536.34	1119.53
536.69	1115.80
537.05	1114.47
537.41	1115.94
537.76	1119.55
538.12	1115.59
538.47	1115.45
538.83	1114.35
539.18	1113.79
539.54	1108.66
539.89	1109.06
540.25	1111.24
540.60	1108.59
540.96	1108.27
541.31	1107.38
541.67	1110.35
542.02	1108.90
542.38	1111.29
542.73	1111.97
543.09	1112.99
543.44	1112.22
543.80	1114.68
544.15	1113.60
544.51	1108.88
544.86	1107.92
545.22	1105.81
545.57	1097.24
545.93	1095.65
546.28	1096.00
546.64	1095.89
546.99	1092.73
547.35	1097.83
547.70	1095.21
548.05	1094.01
548.41	1091.72
548.76	1093.17
549.12	1091.72
549.47	1095.93
549.83	1099.28
550.18	1096.87
550.53	1097.52
550.89	1093.40
551.24	1091.20
551.60	1087.09
551.95	1090.01
552.30	1086.24
552.66	1088.49
553.01	1085.89
553.37	1087.60
553.72	1087.65
554.07	1089.68
554.43	1089.03
554.78	1089.00
555.13	1088.75
555.49	1086.87
555.84	1085.99
556.19	1086.50
556.55	1087.37
556.90	1086.99
557.26	1085.33
557.61	1085.99
557.96	1086.41
558.32	1087.53
558.67	1084.04
559.02	1086.73
559.37	1089.12
559.73	1089.71
560.08	1088.75
560.43	1091.46
560.79	1088.89
561.14	1086.24
561.49	1083.20
561.85	1081.40
562.20	1083.79
562.55	1084.44
562.90	1082.71
563.26	1082.97
563.61	1085.52
563.96	1084.89
564.32	1087.69
564.67	1087.41
565.02	1084.96
565.37	1080.70
565.73	1075.62
566.08	1073.56
566.43	1071.19
566.78	1074.14
567.14	1077.72
567.49	1081.73
567.84	1079.08
568.19	1083.13
568.54	1083.13
568.90	1082.08
569.25	1080.98
569.60	1081.73
569.95	1078.45
570.31	1079.95
570.66	1081.54
571.01	1078.85
571.36	1079.62
571.71	1082.05
572.06	1077.86
572.42	1072.64
572.77	1074.61
573.12	1073.65
573.47	1072.20
573.82	1075.69
574.18	1078.24
574.53	1076.39
574.88	1077.07
575.23	1079.76
575.58	1079.41
575.93	1078.14
576.28	1080.70
576.64	1079.48
576.99	1078.96
577.34	1076.23
577.69	1076.20
578.04	1075.03
578.39	1076.51
578.74	1076.32
579.09	1077.33
579.44	1077.72
579.80	1079.53
580.15	1082.59
580.50	1082.99
580.85	1081.12
581.20	1081.68
581.55	1080.11
581.90	1078.10
582.25	1076.30
582.60	1079.92
582.95	1081.75
583.30	1081.37
583.65	1080.60
584.00	1080.06
584.35	1076.44
584.71	1075.38
585.06	1074.94
585.41	1076.23
585.76	1076.69
586.11	1079.24
586.46	1079.13
586.81	1080.58
587.16	1077.00
587.51	1077.40
587.86	1078.33
588.21	1080.41
588.56	1080.46
588.91	1081.28
589.26	1080.91
589.61	1078.75
589.96	1076.69
590.31	1075.87
590.66	1078.05
591.01	1076.39
591.36	1075.69
591.71	1077.65
592.06	1079.53
592.41	1077.14
592.76	1080.53
593.10	1084.14
593.45	1079.90
593.80	1080.67
594.15	1083.79
594.50	1082.83
594.85	1082.10
595.20	1084.32
595.55	1084.53
595.90	1084.79
596.25	1083.60
596.60	1078.07
596.95	1076.69
597.30	1073.16
597.64	1080.20
597.99	1082.73
598.34	1084.96
598.69	1083.71
599.04	1083.15
599.39	1073.30
599.74	1071.24
600.09	1072.92
600.44	1076.06
600.78	1075.45
601.13	1076.69
601.48	1076.79
601.83	1074.66
602.18	1073.77
602.53	1077.91
602.88	1077.02
603.22	1075.27
603.57	1078.92
603.92	1079.97
604.27	1075.43
604.62	1076.25
604.97	1080.02
605.31	1080.16
605.66	1079.31
606.01	1082.24
606.36	1081.87
606.71	1078.26
607.05	1076.01
607.40	1076.11
607.75	1074.28
608.10	1074.24
608.44	1077.21
608.79	1075.78
609.14	1077.33
609.49	1077.65
609.84	1078.47
610.18	1077.98
610.53	1081.94
610.88	1081.05
611.23	1079.43
611.57	1077.79
611.92	1076.27
612.27	1072.71
612.62	1073.74
612.96	1075.41
613.31	1076.15
613.66	1079.57
614.00	1080.91
614.35	1080.23
614.70	1078.94
615.05	1080.23
615.39	1076.46
615.74	1077.30
616.09	1074.66
616.43	1075.03
616.78	1073.67
617.13	1074.14
617.47	1073.77
617.82	1076.37
618.17	1075.57
618.51	1077.18
618.86	1078.43
619.21	1078.78
619.55	1078.89
619.90	1080.98
620.25	1079.03
620.59	1078.71
620.94	1078.78
621.29	1077.47
621.63	1081.30
621.98	1082.66
622.32	1080.06
622.67	1079.97
623.02	1079.64
623.36	1075.20
623.71	1072.95
624.05	1075.80
624.40	1073.86
624.75	1076.88
625.09	1077.40
625.44	1077.09
625.78	1073.60
626.13	1076.76
626.48	1073.77
626.82	1075.08
627.17	1080.27
627.51	1083.57
627.86	1079.74
628.20	1078.64
628.55	1077.51
628.89	1075.27
629.24	1075.03
629.58	1076.18
629.93	1078.17
630.28	1077.33
630.62	1073.74
630.97	1069.70
631.31	1071.33
631.66	1068.48
632.00	1066.91
632.35	1070.94
632.69	1076.04
633.04	1074.82
633.38	1078.26
633.73	1080.48
634.07	1078.17
634.42	1075.38
634.76	1074.73
635.11	1073.07
635.45	1072.01
635.79	1069.37
636.14	1069.27
636.48	1070.82
636.83	1071.94
637.17	1070.72
637.52	1073.32
637.86	1073.81
638.21	1070.28
638.55	1070.94
638.89	1074.33
639.24	1074.94
639.58	1075.03
639.93	1078.85
640.27	1079.43
640.61	1078.10
640.96	1078.61
641.30	1083.95
641.65	1083.81
641.99	1082.76
642.33	1082.29
642.68	1080.32
643.02	1074.42
643.37	1074.80
643.71	1072.55
644.05	1074.26
644.40	1075.52
644.74	1074.24
645.08	1071.19
645.43	1071.45
645.77	1071.08
646.11	1070.33
646.46	1070.16
646.80	1071.10
647.14	1073.46
647.49	1072.01
647.83	1073.46
648.17	1077.25
648.52	1081.30
648.86	1078.89
649.20	1079.53
649.55	1077.82
649.89	1078.31
650.23	1074.31
650.57	1076.20
650.92	1076.93
651.26	1076.48
651.60	1077.47
651.95	1077.35
652.29	1079.27
652.63	1082.94
652.97	1084.53
653.32	1083.04
653.66	1085.00
654.00	1083.53
654.34	1078.45
654.69	1074.96
655.03	1076.69
655.37	1074.70
655.71	1074.68
656.05	1076.72
656.40	1077.75
656.74	1074.80
657.08	1076.25
657.42	1076.41
657.76	1075.73
658.11	1078.26
658.45	1077.68
658.79	1078.03
659.13	1075.73
659.47	1073.53
659.82	1071.26
660.16	1072.01
660.50	1072.27
660.84	1070.72
661.18	1070.58
661.52	1071.97
661.87	1070.87
662.21	1063.66
662.55	1067.03
662.89	1067.59
663.23	1065.67
663.57	1066.25
663.91	1073.14
664.25	1074.12
664.60	1076.53
664.94	1079.85
665.28	1079.57
665.62	1078.33
665.96	1080.51
666.30	1076.30
666.64	1075.99
666.98	1077.44
667.32	1076.41
667.66	1071.68
668.01	1073.53
668.35	1071.90
668.69	1069.06
669.03	1072.50
669.37	1072.85
669.71	1073.16
670.05	1073.77
670.39	1075.73
670.73	1072.69
671.07	1072.27
671.41	1072.90
671.75	1073.56
672.09	1074.89
672.43	1073.79
672.77	1073.74
673.11	1071.97
673.45	1069.55
673.79	1069.77
674.13	1072.27
674.47	1072.46
674.81	1076.81
675.15	1082.10
675.49	1081.40
675.83	1078.61
676.17	1079.81
676.51	1077.37
676.85	1076.25
677.19	1075.50
677.53	1074.21
677.87	1075.99
678.21	1077.44
678.55	1075.10
678.89	1072.64
679.23	1073.46
679.57	1071.50
679.90	1070.58
680.24	1072.67
680.58	1072.97
680.92	1075.17
681.26	1076.11
681.60	1078.21
681.94	1076.60
682.28	1077.82
682.62	1079.31
682.96	1079.50
683.29	1078.54
683.63	1078.50
683.97	1081.56
684.31	1081.02
684.65	1076.65
684.99	1074.87
685.33	1077.44
685.67	1077.96
686.00	1077.25
686.34	1080.34
686.68	1077.30
687.02	1075.94
687.36	1076.86
687.70	1079.46
688.03	1080.23
688.37	1083.97
688.71	1078.45
689.05	1075.48
689.39	1073.98
689.72	1073.42
690.06	1071.43
690.40	1074.80
690.74	1074.47
691.08	1075.10
691.41	1076.01
691.75	1078.80
692.09	1079.31
692.43	1075.71
692.76	1073.42
693.10	1068.06
693.44	1067.92
693.78	1068.31
694.11	1073.67
694.45	1075.36
694.79	1077.89
695.13	1075.36
695.46	1078.21
695.80	1079.17
696.14	1081.14
696.48	1080.91
696.81	1081.33
697.15	1078.40
697.49	1074.24
697.82	1070.87
698.16	1073.88
698.50	1075.52
698.83	1073.91
699.17	1074.05
699.51	1076.51
699.84	1073.51
700.18	1069.25
700.52	1069.70
700.85	1070.47
701.19	1068.01
701.53	1066.89
701.86	1071.50
702.20	1073.46
702.54	1075.17
702.87	1074.68
703.21	1079.20
703.55	1076.39
703.88	1072.85
704.22	1071.61
704.55	1071.87
704.89	1071.97
705.23	1072.97
705.56	1075.52
705.90	1072.64
706.23	1072.48
706.57	1073.16
706.91	1073.91
707.24	1071.26
707.58	1074.38
707.91	1073.65
708.25	1072.04
708.58	1073.44
708.92	1075.27
709.26	1081.28
709.59	1082.61
709.93	1082.15
710.26	1082.40
710.60	1084.67
710.93	1078.59
711.27	1079.17
711.60	1079.53
711.94	1077.07
712.27	1075.03
712.61	1074.24
712.94	1074.98
713.28	1077.33
713.61	1077.28
713.95	1079.62
714.28	1081.00
714.62	1078.68
714.95	1077.25
715.29	1079.48
715.62	1078.80
715.96	1079.46
716.29	1081.77
716.63	1080.67
716.96	1079.76
717.29	1077.98
717.63	1076.55
717.96	1074.52
718.30	1072.36
718.63	1072.57
718.97	1075.29
719.30	1074.66
719.63	1076.27
719.97	1078.85
720.30	1077.28
720.64	1074.40
720.97	1076.72
721.30	1075.31
721.64	1072.43
721.97	1073.39
722.31	1072.60
722.64	1068.95
722.97	1067.80
723.31	1068.62
723.64	1069.48
723.97	1071.26
724.31	1074.05
724.64	1076.32
724.98	1077.25
725.31	1077.56
725.64	1078.12
725.98	1076.86
726.31	1077.04
726.64	1077.49
726.97	1077.70
727.31	1077.33
727.64	1076.46
727.97	1075.01
728.31	1074.70
728.64	1073.00
728.97	1074.87
729.31	1076.37
729.64	1077.11
729.97	1074.98
730.30	1075.03
730.64	1074.33
730.97	1075.76
731.30	1074.63
731.63	1078.78
731.97	1079.22
732.30	1079.71
732.63	1079.15
732.96	1080.77
733.30	1079.46
733.63	1080.27
733.96	1078.71
734.29	1077.25
734.63	1075.94
734.96	1077.14
735.29	1074.61
735.62	1075.66
735.95	1078.05
736.29	1081.21
736.62	1079.95
736.95	1084.02
737.28	1081.80
737.61	1082.24
737.94	1079.36
738.28	1078.33
738.61	1072.81
738.94	1071.26
739.27	1067.19
739.60	1067.24
739.93	1068.74
740.27	1069.30
740.60	1073.98
740.93	1075.29
741.26	1074.40
741.59	1074.10
741.92	1075.15
742.25	1072.41
742.58	1072.90
742.91	1076.76
743.25	1078.85
743.58	1079.71
743.91	1079.22
744.24	1077.75
744.57	1075.41
744.90	1072.11
745.23	1070.96
745.56	1073.18
745.89	1074.66
746.22	1071.45
746.55	1073.09
746.88	1073.16
747.21	1070.42
747.54	1068.52
747.87	1070.47
748.20	1068.97
748.53	1073.51
748.87	1074.70
749.20	1078.00
749.53	1075.99
749.86	1076.37
750.19	1075.97
750.52	1074.33
750.85	1069.91
751.18	1074.87
751.51	1074.82
751.84	1071.54
752.16	1070.68
752.49	1074.89
752.82	1073.30
753.15	1073.16
753.48	1077.35
753.81	1080.67
754.14	1075.69
754.47	1075.31
754.80	1075.83
755.13	1073.23
755.46	1073.09
755.79	1078.17
756.12	1078.80
756.45	1080.63
756.78	1081.30
757.11	1082.43
757.43	1081.07
757.76	1080.11
758.09	1074.38
758.42	1074.61
758.75	1071.99
759.08	1070.75
759.41	1072.92
759.74	1074.05
760.07	1071.66
760.39	1075.10
760.72	1075.31
761.05	1077.49
761.38	1082.36
761.71	1080.34
762.04	1078.89
762.36	1079.88
762.69	1076.53
763.02	1074.07
763.35	1077.75
763.68	1078.61
764.01	1078.19
764.33	1077.58
764.66	1077.14
764.99	1074.68
765.32	1072.04
765.65	1071.90
765.97	1071.80
766.30	1071.57
766.63	1072.32
766.96	1075.45
767.28	1075.57
767.61	1074.49
767.94	1075.57
768.27	1073.30
768.59	1071.94
768.92	1071.52
769.25	1072.62
769.58	1072.29
769.90	1076.18
770.23	1076.08
770.56	1076.18
770.89	1075.50
771.21	1077.14
771.54	1077.28
771.87	1075.59
772.19	1078.21
772.52	1081.49
772.85	1080.04
773.17	1077.37
773.50	1080.86
773.83	1081.73
774.15	1081.75
774.48	1081.02
774.81	1084.89
775.13	1081.05
775.46	1076.11
775.79	1073.95
776.11	1074.80
776.44	1070.63
776.77	1073.93
777.09	1078.59
777.42	1076.69
777.74	1076.06
778.07	1077.93
778.40	1077.30
778.72	1074.49
779.05	1075.24
779.37	1077.86
779.70	1077.47
780.03	1077.21
780.35	1075.38
780.68	1075.64
781.00	1071.66
781.33	1073.30
781.65	1072.36
781.98	1075.85
782.31	1072.78
782.63	1075.71
782.96	1075.22
783.28	1077.42
783.61	1075.59
783.93	1078.14
784.26	1078.10
784.58	1080.25
784.91	1075.94
785.23	1075.80
785.56	1078.52
785.88	1075.66
786.21	1072.18
786.53	1073.56
786.86	1075.10
787.18	1075.08
787.51	1076.11
787.83	1078.10
788.16	1077.47
788.48	1078.33
788.81	1077.16
789.13	1075.59
789.46	1075.38
789.78	1074.75
790.10	1069.20
790.43	1069.74
790.75	1069.98
791.08	1070.16
791.40	1073.37
791.73	1080.37
792.05	1081.16
792.37	1082.66
792.70	1080.74
793.02	1080.98
793.35	1077.00
793.67	1074.94
793.99	1074.10
794.32	1074.05
794.64	1070.98
794.96	1073.63
795.29	1073.14
795.61	1075.15
795.93	1077.35
796.26	1079.15
796.58	1074.80
796.91	1077.25
797.23	1076.83
797.55	1072.64
797.87	1071.17
798.20	1070.75
798.52	1070.33
798.84	1070.65
799.17	1070.14
799.49	1069.88
799.81	1071.94
800.14	1069.39
800.46	1067.05
800.78	1072.81
801.10	1073.86
801.43	1072.92
801.75	1071.64
802.07	1073.02
802.40	1071.54
802.72	1072.69
803.04	1075.94
803.36	1077.68
803.69	1080.53
804.01	1079.85
804.33	1080.23
804.65	1079.48
804.97	1078.99
805.30	1077.23
805.62	1075.80
805.94	1076.37
806.26	1078.45
806.58	1080.41
806.91	1077.93
807.23	1078.12
807.55	1075.85
807.87	1075.43
808.19	1076.90
808.52	1077.58
808.84	1078.43
809.16	1080.91
809.48	1079.64
809.80	1076.11
810.12	1076.01
810.44	1074.73
810.77	1074.87
811.09	1073.60
811.41	1075.57
811.73	1075.71
812.05	1075.87
812.37	1078.14
812.69	1077.04
813.01	1075.92
813.33	1076.37
813.66	1074.84
813.98	1070.96
814.30	1069.72
814.62	1069.88
814.94	1069.27
815.26	1071.61
815.58	1071.03
815.90	1069.30
816.22	1070.07
816.54	1070.02
816.86	1067.73
817.18	1069.86
817.50	1076.25
817.82	1075.05
818.14	1076.30
818.46	1078.99
818.78	1075.43
819.10	1069.41
819.42	1067.92
819.74	1069.04
820.06	1067.73
820.38	1071.12
820.70	1073.79
821.02	1078.99
821.34	1080.06
821.66	1078.47
821.98	1075.08
822.30	1074.77
822.62	1072.92
822.94	1070.91
823.26	1073.46
823.58	1076.11
823.90	1079.36
824.22	1079.43
824.54	1080.63
824.86	1081.21
825.18	1080.04
825.50	1075.50
825.81	1074.05
826.13	1068.27
826.45	1065.60
826.77	1066.11
827.09	1068.74
827.41	1070.44
827.73	1077.68
828.05	1081.12
828.36	1081.44
828.68	1081.49
829.00	1080.77
829.32	1079.36
829.64	1078.89
829.96	1075.43
830.28	1076.13
830.59	1074.68
830.91	1071.12
831.23	1070.72
831.55	1074.40
831.87	1070.21
832.19	1072.08
832.50	1073.72
832.82	1073.46
833.14	1073.49
833.46	1074.12
833.78	1075.92
834.09	1077.68
834.41	1077.35
834.73	1074.87
835.05	1076.65
835.36	1073.86
835.68	1069.51
836.00	1068.50
836.32	1071.33
836.63	1074.05
836.95	1074.96
837.27	1079.03
837.59	1079.67
837.90	1076.08
838.22	1076.01
838.54	1076.06
838.85	1075.03
839.17	1075.62
839.49	1079.43
839.80	1077.98
840.12	1075.27
840.44	1075.64
840.76	1074.61
841.07	1071.85
841.39	1071.29
841.71	1076.01
842.02	1074.26
842.34	1073.46
842.65	1074.52
842.97	1075.43
843.29	1073.30
843.60	1073.93
843.92	1074.35
844.24	1073.14
844.55	1071.61
844.87	1070.19
845.18	1069.48
845.50	1071.33
845.82	1074.68
846.13	1073.60
846.45	1075.10
846.76	1073.53
847.08	1073.32
847.40	1073.93
847.71	1074.59
848.03	1073.98
848.34	1073.86
848.66	1073.60
848.97	1070.87
849.29	1072.46
849.60	1071.26
849.92	1073.25
850.24	1074.75
850.55	1078.66
850.87	1076.97
851.18	1076.67
851.50	1074.73
851.81	1073.65
852.13	1068.76
852.44	1070.63
852.76	1074.49
853.07	1078.43
853.39	1077.33
853.70	1081.80
854.01	1083.15
854.33	1082.92
854.64	1082.33
854.96	1084.35
855.27	1082.50
855.59	1079.24
855.90	1077.77
856.22	1078.57
856.53	1075.20
856.84	1071.05
857.16	1075.55
857.47	1073.09
857.79	1073.56
858.10	1075.73
858.41	1078.12
858.73	1073.98
859.04	1073.16
859.36	1071.71
859.67	1070.07
859.98	1069.79
860.30	1070.89
860.61	1071.17
860.92	1072.76
861.24	1069.55
861.55	1067.71
861.87	1067.52
862.18	1070.07
862.49	1069.30
862.81	1071.50
863.12	1071.10
863.43	1069.60
863.74	1070.09
864.06	1070.23
864.37	1070.02
864.68	1074.35
865.00	1073.67
865.31	1071.24
865.62	1069.34
865.94	1070.58
866.25	1067.68
866.56	1067.31
866.87	1069.79
867.19	1071.54
867.50	1073.11
867.81	1075.08
868.12	1077.09
868.44	1075.27
868.75	1072.27
869.06	1073.11
869.37	1071.78
869.68	1070.96
870.00	1071.64
870.31	1072.92
870.62	1070.87
870.93	1071.08
871.24	1070.30
871.56	1069.86
871.87	1073.14
872.18	1074.31
872.49	1074.21
872.80	1075.73
873.12	1080.79
873.43	1077.47
873.74	1077.51
874.05	1077.07
874.36	1078.92
874.67	1075.31
874.98	1078.14
875.29	1076.67
875.61	1080.30
875.92	1081.09
876.23	1078.61
876.54	1074.80
876.85	1074.21
877.16	1071.24
877.47	1068.67
877.78	1069.93
878.09	1072.43
878.40	1075.20
878.72	1077.28
879.03	1082.12
879.34	1084.35
879.65	1081.07
879.96	1083.86
880.27	1082.40
880.58	1078.99
880.89	1076.60
881.20	1079.92
881.51	1076.62
881.82	1076.55
882.13	1076.41
882.44	1074.82
882.75	1073.23
883.06	1069.30
883.37	1068.71
883.68	1067.28
883.99	1071.17
884.30	1069.44
884.61	1070.44
884.92	1071.10
885.23	1071.90
885.54	1070.26
885.85	1073.49
886.16	1076.23
886.47	1076.34
886.78	1075.05
887.08	1072.06
887.39	1071.68
887.70	1072.48
888.01	1071.24
888.32	1072.01
888.63	1072.57
888.94	1069.98
889.25	1068.31
889.56	1069.67
889.87	1068.64
890.17	1069.86
890.48	1072.81
890.79	1071.38
891.10	1071.36
891.41	1071.64
891.72	1074.59
892.03	1074.98
892.34	1080.23
892.64	1079.92
892.95	1083.04
893.26	1083.27
893.57	1079.31
893.88	1075.50
894.18	1075.87
894.49	1073.00
894.80	1070.33
895.11	1072.74
895.42	1073.37
895.72	1072.92
896.03	1075.41
896.34	1075.13
896.65	1076.01
896.96	1077.25
897.26	1078.50
897.57	1078.05
897.88	1079.17
898.19	1076.08
898.49	1076.23
898.80	1076.20
899.11	1071.12
899.41	1069.67
899.72	1072.41
900.03	1071.94
900.34	1066.61
900.64	1070.63
900.95	1074.87
901.26	1074.47
901.56	1073.04
901.87	1076.46
902.18	1078.89
902.48	1076.41
902.79	1076.97
903.10	1075.64
903.40	1076.34
903.71	1074.38
904.02	1073.91
904.32	1071.94
904.63	1071.99
904.94	1071.99
905.24	1069.77
905.55	1072.27
905.85	1073.39
906.16	1076.34
906.47	1077.09
906.77	1076.79
907.08	1073.88
907.38	1072.97
907.69	1071.94
908.00	1074.21
908.30	1073.70
908.61	1072.88
908.91	1074.59
909.22	1073.04
909.52	1068.24
909.83	1068.74
910.14	1070.28
910.44	1070.54
910.75	1070.87
911.05	1070.68
911.36	1071.19
911.66	1072.74
911.97	1073.42
912.27	1075.73
912.58	1077.16
912.88	1076.90
913.19	1075.80
913.49	1075.50
913.80	1072.67
914.10	1071.12
914.41	1076.37
914.71	1074.89
915.01	1075.99
915.32	1078.21
915.62	1079.76
915.93	1076.48
916.23	1077.02
916.54	1076.27
916.84	1074.33
917.15	1075.24
917.45	1076.01
917.75	1074.84
918.06	1076.27
918.36	1076.44
918.67	1075.17
918.97	1074.05
919.27	1077.09
919.58	1073.86
919.88	1074.38
920.18	1075.97
920.49	1073.30
920.79	1069.32
921.10	1071.94
921.40	1074.52
921.70	1072.55
922.01	1075.52
922.31	1079.97
922.61	1078.28
922.92	1073.49
923.22	1073.18
923.52	1071.40
923.82	1068.20
924.13	1067.64
924.43	1070.40
924.73	1070.91
925.04	1074.84
925.34	1076.69
925.64	1077.65
925.94	1077.23
926.25	1074.12
926.55	1067.54
926.85	1066.32
927.15	1063.40
927.46	1064.57
927.76	1067.68
928.06	1072.36
928.36	1073.98
928.67	1077.84
928.97	1074.45
929.27	1077.58
929.57	1075.71
929.87	1073.49
930.18	1072.36
930.48	1077.33
930.78	1074.17
931.08	1074.89
931.38	1078.21
931.69	1076.55
931.99	1073.91
932.29	1076.39
932.59	1077.09
932.89	1076.30
933.19	1077.16
933.49	1076.74
933.80	1074.03
934.10	1072.06
934.40	1070.91
934.70	1069.23
935.00	1071.99
935.30	1072.20
935.60	1072.69
935.90	1072.83
936.20	1072.13
936.50	1069.37
936.81	1071.92
937.11	1071.94
937.41	1070.61
937.71	1072.67
938.01	1071.12
938.31	1070.47
938.61	1071.66
938.91	1070.75
939.21	1068.43
939.51	1067.92
939.81	1066.32
940.11	1066.63
940.41	1068.17
940.71	1072.06
941.01	1075.36
941.31	1075.13
941.61	1076.06
941.91	1076.79
942.21	1077.47
942.51	1079.20
942.81	1080.37
943.11	1078.03
943.41	1078.85
943.71	1078.96
944.01	1077.44
944.31	1078.17
944.61	1078.52
944.90	1075.97
945.20	1072.43
945.50	1070.23
945.80	1067.89
946.10	1072.04
946.40	1071.08
946.70	1072.88
947.00	1074.47
947.30	1075.45
947.60	1071.66
947.89	1072.20
948.19	1075.34
948.49	1076.30
948.79	1074.38
949.09	1079.01
949.39	1082.19
949.69	1079.01
949.98	1077.56
950.28	1082.05
950.58	1077.14
950.88	1074.10
951.18	1073.74
951.48	1075.15
951.77	1072.13
952.07	1071.92
952.37	1073.49
952.67	1073.81
952.97	1073.14
953.26	1071.66
953.56	1073.28
953.86	1069.44
954.16	1070.91
954.45	1068.22
954.75	1068.34
955.05	1066.28
955.35	1067.87
955.64	1067.87
955.94	1071.45
956.24	1075.45
956.54	1077.68
956.83	1078.61
957.13	1077.51
957.43	1076.11
957.72	1076.95
958.02	1075.38
958.32	1076.81
958.61	1075.99
958.91	1073.30
959.21	1071.17
959.50	1073.00
959.80	1069.65
960.10	1067.19
960.39	1071.26
960.69	1071.78
960.99	1072.88
961.28	1075.97
961.58	1079.92
961.87	1075.92
962.17	1074.42
962.47	1074.94
962.76	1075.92
963.06	1074.28
963.36	1077.42
963.65	1076.41
963.95	1074.03
964.24	1072.78
964.54	1074.96
964.83	1077.07
965.13	1079.83
965.42	1078.94
965.72	1076.62
966.02	1072.85
966.31	1070.35
966.61	1068.85
966.90	1068.69
967.20	1073.11
967.49	1072.90
967.79	1072.60
968.08	1074.96
968.38	1078.59
968.67	1073.79
968.97	1075.55
969.26	1075.76
969.56	1072.88
969.85	1068.85
970.15	1072.81
970.44	1071.08
970.74	1068.13
971.03	1068.50
971.32	1069.65
971.62	1068.69
971.91	1070.00
972.21	1071.85
972.50	1070.44
972.80	1071.10
973.09	1070.51
973.38	1070.21
973.68	1070.54
973.97	1070.72
974.27	1068.57
974.56	1068.99
974.85	1069.95
975.15	1070.72
975.44	1071.12
975.73	1074.98
976.03	1076.90
976.32	1078.59
976.61	1081.37
976.91	1082.71
977.20	1080.18
977.49	1078.03
977.79	1076.65
978.08	1070.96
978.37	1070.54
978.67	1070.16
978.96	1070.19
979.25	1069.86
979.55	1072.46
979.84	1070.07
980.13	1070.72
980.42	1074.05
980.72	1074.33
981.01	1074.45
981.30	1075.73
981.59	1075.05
981.89	1069.04
982.18	1070.26
982.47	1070.42
982.76	1072.95
983.06	1073.93
983.35	1076.04
983.64	1074.14
983.93	1074.14
984.22	1072.97
984.52	1072.20
984.81	1076.30
985.10	1076.65
985.39	1076.51
985.68	1075.45
985.97	1076.97
986.27	1072.25
986.56	1070.35
986.85	1068.57
987.14	1068.17
987.43	1065.41
987.72	1067.64
988.01	1069.20
988.31	1070.12
988.60	1073.81
988.89	1073.93
989.18	1073.63
989.47	1074.14
989.76	1076.97
990.05	1073.14
990.34	1075.20
990.63	1073.44
990.92	1075.57
991.21	1076.44
991.51	1077.70
991.80	1076.88
992.09	1078.28
992.38	1076.08
992.67	1074.10
992.96	1075.41
993.25	1073.88
993.54	1075.17
993.83	1072.92
994.12	1071.26
994.41	1074.26
994.70	1074.59
994.99	1071.90
995.28	1073.44
995.57	1076.72
995.86	1069.81
996.15	1069.51
996.44	1070.84
996.73	1071.01
997.02	1071.29
997.31	1071.22
997.59	1073.21
997.88	1072.55
998.17	1071.45
998.46	1067.92
998.75	1070.89
999.04	1071.94
999.33	1072.08
999.62	1077.35
999.91	1078.10
1000.20	1076.83
1000.49	1075.03
1000.77	1076.25
1001.06	1071.19
1001.35	1072.43
1001.64	1072.50
1001.93	1072.43
1002.22	1072.27
1002.51	1074.38
1002.79	1074.38
1003.08	1074.17
1003.37	1075.69
1003.66	1073.63
1003.95	1071.29
1004.23	1071.97
1004.52	1075.10
1004.81	1073.72
1005.10	1073.70
1005.39	1076.30
1005.67	1072.95
1005.96	1067.85
1006.25	1070.26
1006.54	1072.36
1006.83	1072.20
1007.11	1073.07
1007.40	1075.92
1007.69	1073.91
1007.97	1073.44
1008.26	1072.06
1008.55	1073.11
1008.84	1072.90
1009.12	1070.56
1009.41	1070.80
1009.70	1073.32
1009.98	1072.53
1010.27	1073.07
1010.56	1073.74
1010.85	1069.77
1011.13	1066.51
1011.42	1065.95
1011.71	1066.77
1011.99	1070.14
1012.28	1071.29
1012.56	1074.35
1012.85	1080.09
1013.14	1080.93
1013.42	1079.06
1013.71	1082.73
1014.00	1081.14
1014.28	1076.90
1014.57	1076.11
1014.85	1074.26
1015.14	1073.44
1015.43	1070.82
1015.71	1069.41
1016.00	1066.79
1016.28	1069.27
1016.57	1067.89
1016.85	1072.29
1017.14	1071.73
1017.43	1075.31
1017.71	1076.15
1018.00	1078.40
1018.28	1075.10
1018.57	1074.98
1018.85	1073.23
1019.14	1073.18
1019.42	1069.32
1019.71	1071.97
1019.99	1073.16
1020.28	1072.20
1020.56	1073.93
1020.85	1076.58
1021.13	1075.76
1021.42	1075.52
1021.70	1077.14
1021.99	1073.65
1022.27	1073.74
1022.55	1069.98
1022.84	1075.01
>>>>>End Processed Spectral Data<<<<<
