SpectraSuite Data File
++++++++++++++++++++++++++++++++++++
Date: Mon Aug 26 10:22:12 PDT 2019
User: corrico
Dark Spectrum Present: No
Reference Spectrum Present: No
Number of Sampled Component Spectra: 1
Spectrometers: USB2+H06089
Integration Time (usec): 2000 (USB2+H06089)
Spectra Averaged: 20 (USB2+H06089)
Boxcar Smoothing: 2 (USB2+H06089)
Correct for Electrical Dark: No (USB2+H06089)
Strobe/Lamp Enabled: No (USB2+H06089)
Correct for Detector Non-linearity: No (USB2+H06089)
Correct for Stray Light: No (USB2+H06089)
Number of Pixels in Processed Spectrum: 2048
>>>>>Begin Processed Spectral Data<<<<<
339.70	1023.87
340.07	1023.87
340.45	994.24
340.82	972.00
341.19	948.29
341.57	926.31
341.94	912.90
342.31	901.48
342.69	899.23
343.06	900.10
343.43	899.49
343.81	900.59
344.18	905.65
344.55	907.96
344.93	910.87
345.30	912.34
345.67	921.05
346.04	928.42
346.42	934.69
346.79	941.85
347.16	953.21
347.54	958.64
347.91	968.65
348.28	978.62
348.65	991.90
349.03	1002.40
349.40	1015.23
349.77	1022.37
350.14	1031.50
350.52	1036.04
350.89	1039.64
351.26	1042.54
351.63	1051.09
352.01	1055.86
352.38	1057.45
352.75	1060.80
353.12	1068.55
353.50	1073.37
353.87	1077.25
354.24	1082.10
354.61	1087.27
354.98	1085.24
355.36	1084.18
355.73	1083.18
356.10	1085.03
356.47	1083.55
356.84	1085.03
357.22	1079.95
357.59	1079.99
357.96	1078.87
358.33	1080.16
358.70	1078.85
359.08	1081.89
359.45	1082.85
359.82	1081.98
360.19	1083.27
360.56	1087.04
360.94	1088.12
361.31	1087.11
361.68	1086.97
362.05	1084.63
362.42	1082.19
362.79	1079.90
363.16	1077.56
363.54	1074.96
363.91	1074.03
364.28	1073.70
364.65	1075.22
365.02	1076.86
365.39	1078.00
365.76	1075.66
366.14	1072.29
366.51	1071.68
366.88	1070.05
367.25	1068.59
367.62	1071.66
367.99	1071.24
368.36	1071.12
368.73	1071.75
369.10	1074.28
369.48	1073.60
369.85	1075.41
370.22	1075.17
370.59	1074.66
370.96	1074.75
371.33	1076.15
371.70	1078.03
372.07	1077.75
372.44	1078.47
372.81	1080.09
373.18	1078.14
373.55	1078.73
373.93	1079.46
374.30	1081.75
374.67	1080.30
375.04	1078.45
375.41	1074.96
375.78	1074.26
376.15	1072.60
376.52	1074.75
376.89	1075.22
377.26	1072.95
377.63	1074.94
378.00	1076.95
378.37	1076.30
378.74	1080.20
379.11	1084.18
379.48	1081.54
379.85	1078.05
380.22	1079.06
380.59	1078.73
380.96	1079.01
381.33	1081.21
381.70	1082.76
382.07	1080.44
382.44	1082.08
382.81	1083.06
383.18	1082.54
383.55	1088.02
383.92	1089.40
384.29	1088.75
384.66	1090.55
385.03	1092.54
385.40	1089.24
385.77	1087.79
386.14	1088.07
386.51	1083.48
386.88	1082.17
387.25	1082.38
387.62	1082.94
387.99	1082.47
388.36	1084.89
388.73	1083.86
389.10	1084.32
389.46	1084.02
389.83	1080.95
390.20	1082.15
390.57	1083.11
390.94	1081.77
391.31	1081.16
391.68	1081.58
392.05	1077.49
392.42	1076.25
392.79	1077.61
393.16	1079.36
393.53	1081.96
393.89	1087.51
394.26	1089.00
394.63	1087.67
395.00	1088.19
395.37	1086.03
395.74	1085.84
396.11	1086.57
396.48	1087.62
396.84	1085.10
397.21	1085.68
397.58	1085.66
397.95	1084.79
398.32	1085.99
398.69	1088.07
399.06	1089.07
399.42	1088.51
399.79	1089.64
400.16	1088.21
400.53	1087.76
400.90	1085.66
401.27	1084.81
401.64	1087.44
402.00	1087.62
402.37	1087.55
402.74	1089.19
403.11	1089.47
403.48	1086.29
403.84	1087.34
404.21	1088.47
404.58	1089.94
404.95	1091.32
405.32	1095.04
405.68	1093.38
406.05	1097.38
406.42	1097.85
406.79	1096.12
407.16	1095.30
407.52	1097.41
407.89	1095.86
408.26	1093.85
408.63	1096.38
408.99	1097.01
409.36	1098.02
409.73	1096.45
410.10	1095.86
410.47	1093.94
410.83	1094.81
411.20	1093.92
411.57	1095.63
411.94	1098.18
412.30	1099.96
412.67	1098.90
413.04	1101.36
413.40	1098.76
413.77	1102.13
414.14	1104.01
414.51	1104.15
414.87	1102.65
415.24	1104.80
415.61	1103.84
415.97	1104.10
416.34	1102.23
416.71	1101.71
417.08	1105.60
417.44	1107.03
417.81	1108.01
418.18	1112.55
418.54	1118.47
418.91	1117.42
419.28	1119.27
419.64	1118.75
420.01	1119.60
420.38	1118.24
420.74	1121.47
421.11	1123.46
421.48	1126.73
421.84	1129.89
422.21	1132.68
422.58	1134.27
422.94	1136.92
423.31	1139.89
423.68	1142.37
424.04	1145.11
424.41	1146.93
424.77	1147.56
425.14	1152.74
425.51	1158.42
425.87	1166.01
426.24	1170.85
426.61	1178.20
426.97	1185.11
427.34	1190.96
427.70	1196.93
428.07	1207.27
428.44	1216.19
428.80	1222.72
429.17	1231.45
429.53	1241.94
429.90	1254.60
430.27	1268.13
430.63	1281.35
431.00	1293.94
431.36	1306.46
431.73	1316.69
432.09	1329.12
432.46	1344.12
432.83	1364.77
433.19	1385.90
433.56	1410.08
433.92	1436.39
434.29	1463.33
434.65	1494.97
435.02	1523.57
435.38	1555.26
435.75	1586.49
436.11	1628.87
436.48	1662.88
436.84	1703.65
437.21	1753.15
437.57	1798.77
437.94	1848.44
438.30	1900.52
438.67	1960.36
439.03	2020.00
439.40	2093.28
439.76	2158.79
440.13	2233.36
440.49	2314.11
440.86	2390.16
441.22	2472.59
441.59	2565.63
441.95	2667.72
442.32	2766.16
442.68	2888.06
443.05	3009.18
443.41	3134.61
443.78	3263.50
444.14	3404.12
444.51	3538.84
444.87	3708.46
445.24	3872.14
445.60	4049.88
445.96	4240.54
446.33	4459.33
446.69	4648.19
447.06	4864.87
447.42	5090.78
447.79	5313.32
448.15	5565.35
448.51	5843.52
448.88	6169.00
449.24	6470.13
449.61	6828.89
449.97	7182.43
450.33	7565.90
450.70	7914.62
451.06	8346.58
451.43	8740.50
451.79	9206.50
452.15	9684.27
452.52	10219.62
452.88	10755.00
453.24	11384.04
453.61	12074.89
453.97	12776.70
454.34	13465.13
454.70	14283.84
455.06	15084.92
455.43	15831.95
455.79	16505.08
456.15	17296.14
456.52	18045.74
456.88	18937.93
457.24	19837.75
457.61	20978.83
457.97	22061.73
458.33	23152.02
458.70	24220.85
459.06	25217.70
459.42	26225.16
459.79	27120.19
460.15	28139.14
460.51	29099.41
460.88	30201.38
461.24	31169.48
461.60	32328.95
461.96	33363.82
462.33	34388.25
462.69	35390.00
463.05	36477.74
463.42	37458.28
463.78	38378.49
464.14	39134.30
464.50	39874.23
464.87	40411.08
465.23	40777.70
465.59	41211.40
465.95	41547.08
466.32	41787.90
466.68	42028.65
467.04	42167.72
467.40	42186.96
467.77	42299.64
468.13	42215.40
468.49	42041.57
468.85	41950.52
469.22	41790.03
469.58	41515.95
469.94	41353.90
470.30	41142.78
470.66	40781.19
471.03	40283.45
471.39	39911.19
471.75	39220.38
472.11	38508.60
472.47	37996.77
472.84	37484.78
473.20	36771.55
473.56	36348.87
473.92	35775.65
474.28	35148.76
474.65	34492.01
475.01	33816.79
475.37	33004.13
475.73	32340.61
476.09	31639.85
476.45	31018.09
476.81	30506.17
477.18	29978.66
477.54	29504.44
477.90	29047.08
478.26	28486.24
478.62	27939.35
478.98	27477.59
479.34	27042.43
479.71	26479.67
480.07	26034.95
480.43	25601.53
480.79	25150.44
481.15	24687.78
481.51	24358.07
481.87	24038.52
482.23	23673.11
482.59	23340.17
482.96	23018.77
483.32	22702.21
483.68	22308.25
484.04	21969.60
484.40	21569.98
484.76	21138.50
485.12	20683.52
485.48	20249.78
485.84	19764.05
486.20	19333.85
486.56	18891.00
486.92	18510.10
487.28	18120.08
487.64	17719.19
488.00	17321.53
488.37	16951.96
488.73	16525.61
489.09	16081.61
489.45	15672.53
489.81	15238.48
490.17	14804.80
490.53	14393.87
490.89	13988.09
491.25	13570.29
491.61	13179.53
491.97	12782.60
492.33	12385.06
492.69	12026.98
493.05	11690.44
493.41	11366.51
493.77	11054.61
494.13	10750.64
494.49	10459.92
494.85	10183.11
495.21	9907.84
495.57	9651.41
495.93	9399.71
496.29	9144.92
496.64	8916.29
497.00	8667.33
497.36	8418.70
497.72	8175.96
498.08	7956.60
498.44	7730.79
498.80	7524.56
499.16	7323.51
499.52	7130.11
499.88	6950.08
500.24	6776.74
500.60	6605.27
500.96	6449.18
501.32	6287.73
501.68	6113.81
502.03	5932.30
502.39	5771.62
502.75	5602.31
503.11	5451.34
503.47	5318.54
503.83	5199.59
504.19	5071.12
504.55	4953.60
504.91	4842.97
505.26	4728.49
505.62	4609.78
505.98	4501.08
506.34	4390.17
506.70	4271.15
507.06	4162.46
507.42	4059.03
507.78	3962.74
508.13	3872.91
508.49	3795.67
508.85	3715.97
509.21	3635.34
509.57	3551.72
509.93	3462.19
510.28	3375.97
510.64	3289.97
511.00	3209.83
511.36	3142.10
511.72	3075.96
512.07	3016.25
512.43	2961.81
512.79	2907.18
513.15	2845.62
513.51	2790.71
513.86	2730.70
514.22	2674.86
514.58	2623.60
514.94	2571.99
515.30	2522.93
515.65	2476.17
516.01	2435.02
516.37	2390.97
516.73	2357.95
517.08	2320.83
517.44	2284.01
517.80	2244.64
518.16	2210.26
518.51	2173.75
518.87	2141.08
519.23	2112.90
519.59	2080.88
519.94	2050.01
520.30	2023.04
520.66	1993.01
521.01	1961.42
521.37	1936.72
521.73	1909.62
522.09	1880.13
522.44	1860.87
522.80	1837.41
523.16	1810.33
523.51	1788.75
523.87	1769.91
524.23	1748.01
524.58	1727.69
524.94	1711.03
525.30	1692.98
525.65	1673.81
526.01	1657.29
526.37	1636.43
526.72	1620.66
527.08	1605.23
527.44	1591.70
527.79	1573.10
528.15	1559.99
528.51	1546.11
528.86	1529.91
529.22	1515.03
529.58	1501.29
529.93	1488.88
530.29	1474.91
530.65	1462.53
531.00	1446.76
531.36	1437.35
531.71	1424.26
532.07	1413.87
532.43	1402.89
532.78	1395.40
533.14	1385.08
533.49	1379.02
533.85	1371.81
534.21	1365.63
534.56	1358.05
534.92	1350.37
535.27	1340.92
535.63	1334.74
535.98	1325.89
536.34	1321.49
536.69	1316.88
537.05	1308.66
537.41	1298.01
537.76	1292.77
538.12	1280.20
538.47	1272.06
538.83	1270.56
539.18	1267.28
539.54	1259.40
539.89	1257.17
540.25	1252.42
540.60	1250.76
540.96	1245.05
541.31	1242.85
541.67	1238.49
542.02	1231.36
542.38	1224.33
542.73	1222.63
543.09	1220.80
543.44	1217.80
543.80	1214.86
544.15	1211.81
544.51	1209.19
544.86	1206.50
545.22	1203.01
545.57	1203.76
545.93	1197.96
546.28	1192.95
546.64	1189.30
546.99	1188.80
547.35	1185.43
547.70	1186.32
548.05	1184.78
548.41	1180.85
548.76	1173.43
549.12	1165.82
549.47	1159.50
549.83	1154.02
550.18	1154.42
550.53	1153.49
550.89	1155.71
551.24	1157.51
551.60	1159.85
551.95	1151.61
552.30	1152.15
552.66	1149.72
553.01	1147.94
553.37	1144.94
553.72	1148.43
554.07	1145.39
554.43	1142.53
554.78	1141.46
555.13	1139.93
555.49	1137.41
555.84	1137.55
556.19	1137.66
556.55	1134.46
556.90	1134.25
557.26	1134.60
557.61	1135.07
557.96	1135.35
558.32	1131.60
558.67	1128.89
559.02	1127.06
559.37	1122.33
559.73	1118.40
560.08	1120.16
560.43	1120.81
560.79	1118.42
561.14	1118.66
561.49	1121.49
561.85	1118.71
562.20	1113.98
562.55	1113.46
562.90	1112.88
563.26	1109.48
563.61	1109.02
563.96	1110.26
564.32	1110.56
564.67	1111.01
565.02	1112.41
565.37	1112.90
565.73	1111.64
566.08	1110.91
566.43	1109.91
566.78	1108.92
567.14	1109.72
567.49	1110.07
567.84	1112.67
568.19	1111.26
568.54	1110.87
568.90	1108.43
569.25	1107.71
569.60	1102.84
569.95	1102.93
570.31	1100.52
570.66	1100.73
571.01	1099.65
571.36	1101.55
571.71	1100.15
572.06	1101.34
572.42	1101.29
572.77	1102.88
573.12	1102.70
573.47	1101.36
573.82	1101.13
574.18	1100.38
574.53	1099.58
574.88	1099.35
575.23	1100.87
575.58	1100.66
575.93	1100.00
576.28	1098.79
576.64	1095.86
576.99	1095.77
577.34	1096.63
577.69	1097.22
578.04	1099.93
578.39	1103.77
578.74	1100.15
579.09	1097.06
579.44	1094.93
579.80	1089.03
580.15	1088.93
580.50	1092.12
580.85	1094.13
581.20	1096.89
581.55	1102.79
581.90	1099.75
582.25	1100.19
582.60	1098.32
582.95	1098.55
583.30	1094.65
583.65	1093.78
584.00	1092.45
584.35	1092.96
584.71	1090.34
585.06	1091.39
585.41	1090.08
585.76	1091.60
586.11	1092.61
586.46	1092.05
586.81	1091.18
587.16	1093.76
587.51	1091.81
587.86	1089.73
588.21	1089.71
588.56	1092.05
588.91	1090.85
589.26	1090.85
589.61	1088.84
589.96	1090.50
590.31	1088.98
590.66	1088.12
591.01	1089.57
591.36	1093.40
591.71	1088.84
592.06	1089.52
592.41	1091.13
592.76	1088.84
593.10	1086.29
593.45	1089.99
593.80	1087.32
594.15	1086.20
594.50	1086.62
594.85	1086.29
595.20	1086.59
595.55	1085.80
595.90	1086.45
596.25	1085.54
596.60	1085.99
596.95	1085.63
597.30	1087.39
597.64	1096.45
597.99	1098.95
598.34	1100.71
598.69	1098.55
599.04	1098.46
599.39	1088.02
599.74	1086.08
600.09	1083.32
600.44	1084.46
600.78	1083.62
601.13	1083.48
601.48	1083.34
601.83	1083.88
602.18	1083.36
602.53	1086.57
602.88	1087.55
603.22	1088.72
603.57	1089.92
603.92	1090.46
604.27	1089.07
604.62	1086.90
604.97	1085.89
605.31	1083.27
605.66	1085.12
606.01	1084.67
606.36	1087.37
606.71	1089.26
607.05	1089.99
607.40	1089.92
607.75	1086.01
608.10	1085.33
608.44	1082.66
608.79	1082.99
609.14	1081.28
609.49	1085.19
609.84	1084.44
610.18	1087.67
610.53	1088.07
610.88	1090.08
611.23	1089.64
611.57	1088.35
611.92	1081.82
612.27	1082.29
612.62	1079.88
612.96	1082.19
613.31	1083.20
613.66	1086.73
614.00	1085.47
614.35	1085.52
614.70	1081.23
615.05	1084.21
615.39	1083.74
615.74	1085.21
616.09	1084.44
616.43	1086.43
616.78	1082.47
617.13	1083.71
617.47	1083.06
617.82	1085.24
618.17	1085.49
618.51	1085.19
618.86	1083.32
619.21	1084.86
619.55	1085.10
619.90	1083.53
620.25	1085.89
620.59	1087.93
620.94	1086.97
621.29	1087.72
621.63	1092.30
621.98	1088.61
622.32	1087.55
622.67	1089.89
623.02	1086.50
623.36	1080.84
623.71	1080.20
624.05	1081.16
624.40	1078.45
624.75	1079.97
625.09	1081.26
625.44	1084.84
625.78	1083.50
626.13	1083.67
626.48	1084.04
626.82	1083.57
627.17	1083.90
627.51	1083.81
627.86	1083.69
628.20	1081.40
628.55	1080.86
628.89	1082.83
629.24	1083.50
629.58	1086.10
629.93	1090.50
630.28	1093.38
630.62	1091.02
630.97	1088.44
631.31	1084.93
631.66	1081.49
632.00	1080.04
632.35	1082.05
632.69	1087.86
633.04	1086.97
633.38	1086.92
633.73	1086.01
634.07	1085.03
634.42	1080.32
634.76	1085.73
635.11	1089.33
635.45	1088.93
635.79	1087.72
636.14	1086.78
636.48	1081.68
636.83	1079.88
637.17	1082.17
637.52	1083.69
637.86	1084.42
638.21	1085.63
638.55	1083.36
638.89	1081.40
639.24	1078.87
639.58	1080.27
639.93	1081.40
640.27	1084.65
640.61	1084.46
640.96	1086.36
641.30	1084.86
641.65	1082.17
641.99	1080.11
642.33	1083.69
642.68	1084.46
643.02	1084.98
643.37	1088.42
643.71	1091.11
644.05	1088.35
644.40	1087.09
644.74	1088.21
645.08	1086.03
645.43	1082.80
645.77	1080.46
646.11	1076.15
646.46	1074.96
646.80	1075.01
647.14	1076.30
647.49	1078.73
647.83	1080.04
648.17	1081.23
648.52	1079.90
648.86	1078.10
649.20	1076.95
649.55	1080.04
649.89	1081.02
650.23	1083.57
650.57	1083.67
650.92	1088.30
651.26	1086.71
651.60	1088.44
651.95	1088.89
652.29	1090.20
652.63	1087.18
652.97	1087.67
653.32	1084.07
653.66	1082.64
654.00	1082.31
654.34	1082.61
654.69	1082.19
655.03	1082.71
655.37	1082.01
655.71	1082.29
656.05	1081.19
656.40	1083.60
656.74	1084.74
657.08	1085.28
657.42	1084.02
657.76	1084.07
658.11	1083.08
658.45	1081.02
658.79	1081.73
659.13	1085.61
659.47	1085.00
659.82	1085.89
660.16	1085.73
660.50	1085.49
660.84	1083.55
661.18	1085.66
661.52	1082.03
661.87	1084.58
662.21	1082.66
662.55	1081.89
662.89	1081.47
663.23	1085.19
663.57	1081.12
663.91	1081.23
664.25	1077.28
664.60	1076.41
664.94	1075.66
665.28	1075.71
665.62	1079.88
665.96	1082.22
666.30	1082.19
666.64	1085.73
666.98	1085.47
667.32	1084.81
667.66	1085.91
668.01	1086.22
668.35	1082.38
668.69	1084.65
669.03	1083.34
669.37	1085.05
669.71	1085.38
670.05	1085.52
670.39	1085.17
670.73	1083.83
671.07	1084.91
671.41	1085.61
671.75	1085.26
672.09	1083.95
672.43	1086.01
672.77	1083.74
673.11	1082.10
673.45	1080.34
673.79	1079.67
674.13	1078.38
674.47	1075.94
674.81	1077.44
675.15	1076.58
675.49	1081.37
675.83	1079.74
676.17	1079.08
676.51	1077.91
676.85	1080.44
677.19	1078.66
677.53	1077.75
677.87	1081.16
678.21	1080.53
678.55	1076.65
678.89	1075.85
679.23	1077.68
679.57	1077.86
679.90	1077.00
680.24	1082.61
680.58	1082.80
680.92	1080.39
681.26	1081.96
681.60	1082.99
681.94	1081.77
682.28	1083.15
682.62	1086.94
682.96	1083.83
683.29	1080.20
683.63	1078.59
683.97	1076.23
684.31	1076.20
684.65	1074.77
684.99	1079.53
685.33	1082.69
685.67	1083.13
686.00	1079.99
686.34	1080.88
686.68	1078.87
687.02	1077.86
687.36	1077.65
687.70	1080.11
688.03	1080.63
688.37	1080.93
688.71	1079.31
689.05	1080.77
689.39	1077.68
689.72	1078.80
690.06	1078.80
690.40	1080.09
690.74	1080.72
691.08	1084.37
691.41	1081.68
691.75	1084.09
692.09	1084.21
692.43	1080.20
692.76	1081.05
693.10	1084.74
693.44	1084.25
693.78	1084.70
694.11	1084.72
694.45	1082.90
694.79	1079.01
695.13	1076.18
695.46	1074.14
695.80	1076.62
696.14	1077.89
696.48	1079.36
696.81	1081.23
697.15	1081.33
697.49	1082.08
697.82	1079.55
698.16	1081.82
698.50	1080.32
698.83	1079.81
699.17	1077.58
699.51	1077.96
699.84	1077.11
700.18	1078.80
700.52	1081.12
700.85	1081.30
701.19	1082.47
701.53	1083.29
701.86	1078.89
702.20	1076.04
702.54	1081.56
702.87	1082.26
703.21	1076.65
703.55	1078.87
703.88	1080.23
704.22	1076.13
704.55	1076.62
704.89	1079.67
705.23	1081.73
705.56	1078.89
705.90	1078.26
706.23	1077.72
706.57	1078.66
706.91	1078.43
707.24	1080.91
707.58	1080.74
707.91	1081.82
708.25	1079.95
708.58	1078.75
708.92	1079.83
709.26	1080.70
709.59	1077.33
709.93	1079.60
710.26	1078.33
710.60	1075.99
710.93	1073.72
711.27	1074.61
711.60	1074.35
711.94	1073.63
712.27	1072.64
712.61	1074.75
712.94	1073.72
713.28	1075.64
713.61	1075.94
713.95	1077.75
714.28	1077.49
714.62	1078.99
714.95	1077.77
715.29	1080.23
715.62	1078.99
715.96	1080.88
716.29	1081.77
716.63	1082.45
716.96	1083.88
717.29	1085.66
717.63	1086.03
717.96	1085.52
718.30	1084.09
718.63	1082.87
718.97	1082.52
719.30	1081.98
719.63	1083.11
719.97	1085.07
720.30	1085.52
720.64	1084.21
720.97	1082.94
721.30	1083.43
721.64	1083.76
721.97	1083.57
722.31	1085.56
722.64	1086.20
722.97	1082.26
723.31	1081.21
723.64	1082.24
723.97	1081.35
724.31	1079.67
724.64	1081.16
724.98	1081.70
725.31	1080.60
725.64	1077.09
725.98	1079.81
726.31	1081.21
726.64	1078.47
726.97	1077.75
727.31	1082.94
727.64	1081.05
727.97	1077.02
728.31	1078.17
728.64	1077.42
728.97	1076.30
729.31	1074.19
729.64	1079.24
729.97	1080.67
730.30	1081.00
730.64	1079.74
730.97	1082.54
731.30	1082.08
731.63	1082.43
731.97	1084.49
732.30	1085.17
732.63	1085.21
732.96	1084.81
733.30	1082.47
733.63	1079.36
733.96	1080.34
734.29	1079.92
734.63	1078.96
734.96	1080.27
735.29	1081.47
735.62	1081.87
735.95	1080.13
736.29	1078.73
736.62	1078.07
736.95	1077.30
737.28	1075.55
737.61	1076.06
737.94	1079.15
738.28	1079.34
738.61	1078.66
738.94	1078.19
739.27	1078.99
739.60	1077.28
739.93	1077.49
740.27	1079.74
740.60	1079.67
740.93	1079.06
741.26	1078.07
741.59	1077.56
741.92	1077.28
742.25	1078.33
742.58	1077.82
742.91	1079.74
743.25	1080.44
743.58	1079.76
743.91	1080.84
744.24	1083.48
744.57	1080.86
744.90	1080.30
745.23	1080.09
745.56	1081.19
745.89	1081.73
746.22	1082.15
746.55	1080.23
746.88	1081.21
747.21	1079.10
747.54	1076.88
747.87	1079.71
748.20	1081.02
748.53	1081.96
748.87	1085.28
749.20	1083.88
749.53	1081.94
749.86	1083.64
750.19	1081.00
750.52	1078.59
750.85	1079.95
751.18	1079.15
751.51	1077.70
751.84	1078.78
752.16	1076.93
752.49	1074.94
752.82	1077.72
753.15	1076.79
753.48	1077.79
753.81	1082.43
754.14	1084.21
754.47	1084.25
754.80	1086.71
755.13	1086.97
755.46	1081.75
755.79	1081.56
756.12	1080.25
756.45	1080.02
756.78	1079.17
757.11	1078.05
757.43	1076.34
757.76	1074.14
758.09	1071.38
758.42	1071.82
758.75	1078.50
759.08	1081.26
759.41	1083.06
759.74	1086.69
760.07	1087.69
760.39	1084.46
760.72	1085.80
761.05	1081.30
761.38	1080.86
761.71	1079.71
762.04	1080.88
762.36	1077.96
762.69	1080.86
763.02	1077.89
763.35	1076.27
763.68	1074.75
764.01	1075.87
764.33	1076.74
764.66	1078.28
764.99	1080.67
765.32	1081.37
765.65	1083.79
765.97	1086.08
766.30	1084.42
766.63	1085.49
766.96	1083.01
767.28	1078.94
767.61	1076.30
767.94	1076.13
768.27	1073.58
768.59	1074.42
768.92	1076.62
769.25	1076.86
769.58	1075.38
769.90	1076.95
770.23	1077.86
770.56	1078.19
770.89	1077.96
771.21	1079.78
771.54	1078.03
771.87	1075.03
772.19	1074.38
772.52	1077.49
772.85	1077.91
773.17	1077.25
773.50	1082.59
773.83	1080.86
774.15	1076.37
774.48	1077.65
774.81	1081.02
775.13	1077.79
775.46	1079.50
775.79	1083.32
776.11	1083.36
776.44	1082.12
776.77	1086.08
777.09	1083.64
777.42	1081.84
777.74	1080.86
778.07	1078.80
778.40	1077.37
778.72	1078.96
779.05	1077.18
779.37	1078.96
779.70	1078.92
780.03	1077.54
780.35	1077.86
780.68	1078.45
781.00	1078.10
781.33	1079.20
781.65	1077.89
781.98	1075.94
782.31	1078.89
782.63	1078.05
782.96	1081.82
783.28	1083.29
783.61	1088.07
783.93	1084.91
784.26	1085.68
784.58	1083.71
784.91	1081.80
785.23	1079.31
785.56	1080.06
785.88	1077.54
786.21	1075.20
786.53	1073.11
786.86	1071.99
787.18	1071.45
787.51	1073.88
787.83	1073.58
788.16	1080.67
788.48	1081.75
788.81	1083.15
789.13	1083.15
789.46	1085.84
789.78	1085.31
790.10	1084.77
790.43	1085.17
790.75	1084.39
791.08	1082.99
791.40	1081.07
791.73	1084.96
792.05	1084.46
792.37	1082.36
792.70	1083.32
793.02	1080.11
793.35	1075.90
793.67	1075.62
793.99	1077.49
794.32	1078.00
794.64	1079.27
794.96	1079.31
795.29	1080.02
795.61	1077.61
795.93	1077.18
796.26	1079.43
796.58	1080.53
796.91	1081.02
797.23	1085.56
797.55	1086.13
797.87	1083.76
798.20	1085.17
798.52	1084.28
798.84	1083.34
799.17	1080.63
799.49	1079.15
799.81	1077.44
800.14	1078.50
800.46	1077.40
800.78	1080.39
801.10	1082.36
801.43	1084.11
801.75	1083.04
802.07	1082.01
802.40	1081.47
802.72	1081.12
803.04	1080.09
803.36	1076.81
803.69	1074.59
804.01	1072.50
804.33	1072.50
804.65	1072.88
804.97	1077.77
805.30	1078.80
805.62	1078.66
805.94	1079.95
806.26	1076.86
806.58	1075.73
806.91	1078.14
807.23	1080.32
807.55	1080.06
807.87	1081.70
808.19	1084.58
808.52	1082.69
808.84	1080.74
809.16	1081.33
809.48	1081.23
809.80	1075.45
810.12	1075.73
810.44	1074.47
810.77	1076.11
811.09	1076.93
811.41	1077.86
811.73	1080.88
812.05	1084.23
812.37	1078.10
812.69	1077.18
813.01	1078.03
813.33	1076.69
813.66	1077.82
813.98	1080.81
814.30	1081.47
814.62	1083.06
814.94	1079.57
815.26	1077.58
815.58	1077.61
815.90	1076.72
816.22	1076.23
816.54	1077.70
816.86	1074.26
817.18	1075.36
817.50	1076.39
817.82	1074.24
818.14	1074.80
818.46	1074.12
818.78	1074.68
819.10	1071.54
819.42	1075.41
819.74	1076.72
820.06	1081.56
820.38	1080.06
820.70	1083.83
821.02	1080.74
821.34	1081.84
821.66	1079.03
821.98	1080.27
822.30	1077.54
822.62	1079.38
822.94	1077.93
823.26	1079.31
823.58	1078.38
823.90	1076.90
824.22	1075.64
824.54	1076.48
824.86	1075.80
825.18	1075.20
825.50	1078.80
825.81	1079.53
826.13	1077.96
826.45	1077.98
826.77	1079.92
827.09	1080.70
827.41	1080.23
827.73	1078.73
828.05	1079.85
828.36	1080.20
828.68	1078.75
829.00	1077.82
829.32	1082.29
829.64	1082.52
829.96	1077.63
830.28	1075.94
830.59	1079.17
830.91	1076.93
831.23	1074.66
831.55	1076.76
831.87	1079.76
832.19	1079.34
832.50	1079.13
832.82	1079.57
833.14	1080.84
833.46	1081.12
833.78	1076.23
834.09	1076.60
834.41	1077.54
834.73	1075.01
835.05	1071.94
835.36	1074.31
835.68	1071.24
836.00	1068.78
836.32	1070.05
836.63	1072.25
836.95	1071.43
837.27	1076.88
837.59	1080.74
837.90	1081.42
838.22	1082.01
838.54	1082.31
838.85	1080.88
839.17	1079.90
839.49	1077.70
839.80	1073.04
840.12	1071.61
840.44	1072.27
840.76	1070.51
841.07	1073.44
841.39	1076.25
841.71	1077.14
842.02	1075.87
842.34	1074.66
842.65	1075.17
842.97	1074.35
843.29	1077.56
843.60	1076.88
843.92	1078.50
844.24	1077.58
844.55	1079.74
844.87	1077.65
845.18	1077.09
845.50	1081.28
845.82	1082.61
846.13	1081.05
846.45	1083.69
846.76	1084.46
847.08	1080.04
847.40	1077.49
847.71	1079.27
848.03	1077.84
848.34	1080.34
848.66	1080.93
848.97	1078.57
849.29	1076.69
849.60	1075.80
849.92	1071.38
850.24	1069.95
850.55	1072.04
850.87	1073.58
851.18	1073.56
851.50	1074.33
851.81	1076.13
852.13	1077.35
852.44	1075.59
852.76	1073.74
853.07	1074.66
853.39	1072.78
853.70	1072.95
854.01	1073.07
854.33	1076.39
854.64	1077.21
854.96	1076.93
855.27	1074.45
855.59	1075.97
855.90	1073.28
856.22	1074.10
856.53	1074.12
856.84	1076.08
857.16	1075.36
857.47	1077.91
857.79	1075.69
858.10	1077.56
858.41	1076.83
858.73	1078.21
859.04	1076.44
859.36	1077.89
859.67	1076.46
859.98	1079.41
860.30	1078.38
860.61	1080.63
860.92	1079.13
861.24	1081.00
861.55	1079.13
861.87	1078.80
862.18	1078.03
862.49	1077.28
862.81	1080.63
863.12	1079.60
863.43	1079.27
863.74	1080.34
864.06	1079.43
864.37	1076.25
864.68	1074.54
865.00	1075.38
865.31	1073.30
865.62	1078.24
865.94	1077.84
866.25	1081.42
866.56	1081.40
866.87	1081.70
867.19	1079.15
867.50	1079.57
867.81	1078.10
868.12	1078.36
868.44	1079.24
868.75	1079.71
869.06	1078.50
869.37	1080.39
869.68	1079.48
870.00	1077.93
870.31	1077.11
870.62	1080.77
870.93	1080.09
871.24	1083.60
871.56	1083.93
871.87	1087.04
872.18	1082.36
872.49	1081.58
872.80	1079.31
873.12	1075.87
873.43	1072.15
873.74	1074.31
874.05	1072.34
874.36	1072.43
874.67	1077.28
874.98	1078.14
875.29	1079.43
875.61	1080.44
875.92	1083.62
876.23	1084.44
876.54	1083.88
876.85	1085.17
877.16	1085.28
877.47	1081.16
877.78	1079.76
878.09	1081.33
878.40	1078.21
878.72	1079.20
879.03	1081.21
879.34	1077.47
879.65	1075.55
879.96	1076.44
880.27	1078.14
880.58	1076.60
880.89	1078.54
881.20	1078.80
881.51	1078.45
881.82	1076.93
882.13	1075.57
882.44	1076.79
882.75	1077.51
883.06	1078.33
883.37	1077.65
883.68	1079.50
883.99	1080.95
884.30	1081.82
884.61	1079.83
884.92	1080.98
885.23	1080.98
885.54	1081.00
885.85	1080.60
886.16	1079.13
886.47	1078.43
886.78	1075.83
887.08	1074.84
887.39	1073.70
887.70	1076.30
888.01	1077.65
888.32	1078.24
888.63	1075.62
888.94	1076.51
889.25	1075.34
889.56	1071.99
889.87	1073.67
890.17	1074.94
890.48	1073.00
890.79	1073.51
891.10	1073.42
891.41	1072.97
891.72	1071.68
892.03	1071.94
892.34	1074.03
892.64	1077.72
892.95	1079.76
893.26	1082.45
893.57	1083.01
893.88	1081.21
894.18	1081.23
894.49	1079.38
894.80	1076.67
895.11	1075.66
895.42	1074.00
895.72	1069.86
896.03	1066.23
896.34	1071.12
896.65	1072.55
896.96	1077.30
897.26	1079.53
897.57	1083.01
897.88	1077.35
898.19	1076.90
898.49	1073.56
898.80	1074.91
899.11	1076.58
899.41	1078.71
899.72	1079.83
900.03	1076.79
900.34	1074.98
900.64	1072.36
900.95	1072.67
901.26	1074.26
901.56	1078.59
901.87	1080.58
902.18	1082.45
902.48	1082.73
902.79	1080.88
903.10	1077.58
903.40	1075.43
903.71	1075.87
904.02	1074.21
904.32	1072.64
904.63	1073.53
904.94	1073.56
905.24	1071.66
905.55	1072.20
905.85	1072.55
906.16	1074.14
906.47	1073.04
906.77	1072.81
907.08	1072.27
907.38	1072.62
907.69	1070.75
908.00	1074.05
908.30	1072.60
908.61	1073.11
908.91	1074.26
909.22	1075.66
909.52	1074.00
909.83	1076.01
910.14	1079.01
910.44	1079.88
910.75	1082.19
911.05	1080.77
911.36	1081.82
911.66	1080.13
911.97	1079.48
912.27	1076.25
912.58	1079.81
912.88	1076.55
913.19	1077.04
913.49	1071.40
913.80	1069.02
914.10	1065.32
914.41	1068.59
914.71	1066.23
915.01	1070.98
915.32	1077.63
915.62	1080.02
915.93	1077.42
916.23	1078.73
916.54	1082.61
916.84	1076.34
917.15	1075.99
917.45	1078.43
917.75	1078.64
918.06	1076.74
918.36	1079.01
918.67	1076.53
918.97	1075.27
919.27	1077.11
919.58	1073.14
919.88	1073.60
920.18	1075.78
920.49	1075.31
920.79	1073.32
921.10	1076.48
921.40	1077.47
921.70	1076.48
922.01	1078.24
922.31	1077.14
922.61	1076.06
922.92	1074.70
923.22	1075.90
923.52	1076.86
923.82	1078.12
924.13	1076.46
924.43	1077.37
924.73	1077.84
925.04	1074.54
925.34	1072.48
925.64	1072.81
925.94	1073.09
926.25	1074.03
926.55	1075.45
926.85	1077.11
927.15	1078.26
927.46	1079.27
927.76	1077.77
928.06	1077.16
928.36	1078.10
928.67	1080.41
928.97	1078.82
929.27	1077.72
929.57	1076.34
929.87	1076.44
930.18	1074.66
930.48	1075.08
930.78	1076.37
931.08	1078.26
931.38	1075.83
931.69	1074.40
931.99	1072.95
932.29	1070.96
932.59	1068.15
932.89	1070.80
933.19	1071.57
933.49	1073.88
933.80	1075.08
934.10	1079.20
934.40	1076.30
934.70	1075.94
935.00	1075.62
935.30	1075.97
935.60	1076.27
935.90	1078.43
936.20	1078.33
936.50	1076.90
936.81	1076.18
937.11	1072.97
937.41	1072.48
937.71	1073.63
938.01	1075.57
938.31	1073.67
938.61	1077.40
938.91	1074.87
939.21	1077.23
939.51	1079.06
939.81	1084.14
940.11	1079.81
940.41	1083.04
940.71	1082.90
941.01	1081.94
941.31	1077.82
941.61	1079.99
941.91	1080.16
942.21	1076.18
942.51	1073.93
942.81	1078.00
943.11	1077.70
943.41	1076.60
943.71	1078.94
944.01	1078.78
944.31	1077.77
944.61	1075.90
944.90	1075.10
945.20	1074.54
945.50	1074.35
945.80	1071.82
946.10	1074.98
946.40	1078.54
946.70	1079.55
947.00	1081.94
947.30	1086.78
947.60	1085.87
947.89	1084.16
948.19	1085.82
948.49	1085.77
948.79	1084.11
949.09	1084.96
949.39	1088.30
949.69	1083.74
949.98	1078.26
950.28	1077.98
950.58	1079.31
950.88	1076.04
951.18	1080.41
951.48	1084.23
951.77	1084.30
952.07	1081.47
952.37	1080.34
952.67	1076.79
952.97	1074.14
953.26	1069.88
953.56	1070.56
953.86	1072.22
954.16	1072.13
954.45	1075.03
954.75	1075.59
955.05	1074.98
955.35	1074.82
955.64	1075.73
955.94	1074.73
956.24	1075.62
956.54	1074.47
956.83	1072.90
957.13	1073.58
957.43	1074.14
957.72	1075.22
958.02	1075.80
958.32	1076.15
958.61	1075.34
958.91	1074.21
959.21	1075.22
959.50	1075.45
959.80	1074.14
960.10	1076.51
960.39	1079.03
960.69	1078.00
960.99	1077.91
961.28	1080.18
961.58	1078.94
961.87	1079.88
962.17	1081.89
962.47	1084.46
962.76	1083.32
963.06	1080.95
963.36	1078.07
963.65	1078.50
963.95	1077.93
964.24	1081.91
964.54	1084.00
964.83	1083.60
965.13	1078.78
965.42	1073.65
965.72	1071.33
966.02	1070.80
966.31	1072.08
966.61	1074.38
966.90	1078.89
967.20	1077.37
967.49	1078.71
967.79	1078.82
968.08	1079.22
968.38	1080.09
968.67	1080.53
968.97	1079.24
969.26	1077.68
969.56	1074.59
969.85	1073.46
970.15	1073.51
970.44	1076.25
970.74	1076.39
971.03	1078.17
971.32	1078.24
971.62	1080.65
971.91	1079.83
972.21	1080.39
972.50	1081.98
972.80	1081.02
973.09	1078.85
973.38	1077.30
973.68	1077.37
973.97	1076.44
974.27	1080.30
974.56	1079.95
974.85	1081.40
975.15	1081.35
975.44	1080.25
975.73	1074.38
976.03	1074.54
976.32	1070.84
976.61	1076.04
976.91	1077.18
977.20	1079.27
977.49	1080.95
977.79	1084.04
978.08	1080.32
978.37	1079.88
978.67	1081.23
978.96	1080.48
979.25	1080.81
979.55	1081.54
979.84	1082.31
980.13	1080.53
980.42	1076.67
980.72	1073.23
981.01	1072.83
981.30	1074.38
981.59	1073.72
981.89	1076.65
982.18	1076.74
982.47	1075.45
982.76	1071.71
983.06	1075.36
983.35	1074.87
983.64	1076.74
983.93	1077.93
984.22	1079.83
984.52	1076.74
984.81	1076.55
985.10	1077.47
985.39	1075.31
985.68	1074.70
985.97	1076.01
986.27	1075.90
986.56	1073.91
986.85	1075.64
987.14	1076.39
987.43	1074.63
987.72	1073.67
988.01	1071.87
988.31	1073.77
988.60	1074.35
988.89	1074.80
989.18	1074.89
989.47	1077.84
989.76	1074.14
990.05	1074.98
990.34	1077.49
990.63	1077.68
990.92	1076.74
991.21	1073.44
991.51	1071.45
991.80	1069.18
992.09	1068.64
992.38	1068.71
992.67	1075.76
992.96	1076.41
993.25	1076.67
993.54	1078.17
993.83	1077.14
994.12	1071.94
994.41	1070.51
994.70	1073.37
994.99	1071.38
995.28	1071.22
995.57	1071.36
995.86	1074.54
996.15	1072.69
996.44	1073.25
996.73	1074.17
997.02	1077.00
997.31	1075.22
997.59	1072.74
997.88	1073.67
998.17	1074.28
998.46	1072.88
998.75	1070.63
999.04	1072.39
999.33	1073.46
999.62	1073.23
999.91	1070.89
1000.20	1075.92
1000.49	1076.55
1000.77	1079.08
1001.06	1077.33
1001.35	1079.76
1001.64	1076.01
1001.93	1073.28
1002.22	1072.90
1002.51	1074.24
1002.79	1076.53
1003.08	1078.54
1003.37	1080.11
1003.66	1077.33
1003.95	1075.17
1004.23	1071.29
1004.52	1068.31
1004.81	1068.67
1005.10	1069.18
1005.39	1073.74
1005.67	1074.87
1005.96	1076.18
1006.25	1077.65
1006.54	1079.76
1006.83	1077.86
1007.11	1082.29
1007.40	1081.47
1007.69	1077.89
1007.97	1073.67
1008.26	1074.59
1008.55	1072.67
1008.84	1071.01
1009.12	1074.63
1009.41	1075.45
1009.70	1074.61
1009.98	1074.12
1010.27	1076.60
1010.56	1074.82
1010.85	1076.95
1011.13	1076.58
1011.42	1073.72
1011.71	1074.59
1011.99	1077.75
1012.28	1076.74
1012.56	1078.57
1012.85	1080.02
1013.14	1080.44
1013.42	1080.18
1013.71	1079.83
1014.00	1080.23
1014.28	1080.91
1014.57	1078.99
1014.85	1078.31
1015.14	1079.97
1015.43	1077.63
1015.71	1077.84
1016.00	1078.10
1016.28	1075.38
1016.57	1071.43
1016.85	1071.15
1017.14	1071.05
1017.43	1073.79
1017.71	1074.19
1018.00	1074.35
1018.28	1074.98
1018.57	1074.35
1018.85	1071.57
1019.14	1071.05
1019.42	1075.43
1019.71	1074.10
1019.99	1069.65
1020.28	1068.10
1020.56	1069.77
1020.85	1069.02
1021.13	1071.33
1021.42	1075.57
1021.70	1078.14
1021.99	1076.27
1022.27	1075.03
1022.55	1068.81
1022.84	1075.94
>>>>>End Processed Spectral Data<<<<<
