SpectraSuite Data File
++++++++++++++++++++++++++++++++++++
Date: Mon Aug 26 10:22:07 PDT 2019
User: corrico
Dark Spectrum Present: No
Reference Spectrum Present: No
Number of Sampled Component Spectra: 1
Spectrometers: USB2+H06089
Integration Time (usec): 2000 (USB2+H06089)
Spectra Averaged: 20 (USB2+H06089)
Boxcar Smoothing: 2 (USB2+H06089)
Correct for Electrical Dark: No (USB2+H06089)
Strobe/Lamp Enabled: No (USB2+H06089)
Correct for Detector Non-linearity: No (USB2+H06089)
Correct for Stray Light: No (USB2+H06089)
Number of Pixels in Processed Spectrum: 2048
>>>>>Begin Processed Spectral Data<<<<<
339.70	1044.35
340.07	1044.35
340.45	1003.93
340.82	977.55
341.19	948.78
341.57	920.72
341.94	910.00
342.31	902.44
342.69	899.37
343.06	898.41
343.43	896.82
343.81	894.81
344.18	896.07
344.55	900.50
344.93	901.95
345.30	910.16
345.67	919.53
346.04	927.32
346.42	932.89
346.79	946.23
347.16	952.50
347.54	961.66
347.91	971.11
348.28	984.03
348.65	993.39
349.03	1005.73
349.40	1014.93
349.77	1023.70
350.14	1030.89
350.52	1037.47
350.89	1041.96
351.26	1048.05
351.63	1052.66
352.01	1055.02
352.38	1059.96
352.75	1063.40
353.12	1069.70
353.50	1073.49
353.87	1079.34
354.24	1079.48
354.61	1082.61
354.98	1081.33
355.36	1082.57
355.73	1085.19
356.10	1087.30
356.47	1086.34
356.84	1086.43
357.22	1085.99
357.59	1081.47
357.96	1083.04
358.33	1086.06
358.70	1089.31
359.08	1091.04
359.45	1091.42
359.82	1091.79
360.19	1089.29
360.56	1087.81
360.94	1085.45
361.31	1086.62
361.68	1087.30
362.05	1086.85
362.42	1084.44
362.79	1083.93
363.16	1082.08
363.54	1077.84
363.91	1076.08
364.28	1074.26
364.65	1073.98
365.02	1075.38
365.39	1074.56
365.76	1075.48
366.14	1077.93
366.51	1078.03
366.88	1075.05
367.25	1076.34
367.62	1078.03
367.99	1078.57
368.36	1079.27
368.73	1080.41
369.10	1077.00
369.48	1076.41
369.85	1074.91
370.22	1074.14
370.59	1075.05
370.96	1074.91
371.33	1074.17
371.70	1074.05
372.07	1073.49
372.44	1070.37
372.81	1074.49
373.18	1073.49
373.55	1077.28
373.93	1081.35
374.30	1081.35
374.67	1080.46
375.04	1082.10
375.41	1081.14
375.78	1076.41
376.15	1078.00
376.52	1078.28
376.89	1079.10
377.26	1078.80
377.63	1081.73
378.00	1084.11
378.37	1082.38
378.74	1080.91
379.11	1080.18
379.48	1078.19
379.85	1076.72
380.22	1081.02
380.59	1079.92
380.96	1080.86
381.33	1083.93
381.70	1086.10
382.07	1086.48
382.44	1088.47
382.81	1086.50
383.18	1087.09
383.55	1086.92
383.92	1087.02
384.29	1086.48
384.66	1087.27
385.03	1084.67
385.40	1084.56
385.77	1082.08
386.14	1083.50
386.51	1081.23
386.88	1082.36
387.25	1082.36
387.62	1085.07
387.99	1086.66
388.36	1090.97
388.73	1092.54
389.10	1092.40
389.46	1089.89
389.83	1088.19
390.20	1087.72
390.57	1084.74
390.94	1082.71
391.31	1079.85
391.68	1079.13
392.05	1075.15
392.42	1076.69
392.79	1079.95
393.16	1084.11
393.53	1086.01
393.89	1088.51
394.26	1088.84
394.63	1090.36
395.00	1090.17
395.37	1088.56
395.74	1087.18
396.11	1085.49
396.48	1086.27
396.84	1086.20
397.21	1089.82
397.58	1092.77
397.95	1096.00
398.32	1093.26
398.69	1092.37
399.06	1090.97
399.42	1089.96
399.79	1089.59
400.16	1089.73
400.53	1088.49
400.90	1088.84
401.27	1092.96
401.64	1091.91
402.00	1092.12
402.37	1094.48
402.74	1092.89
403.11	1089.00
403.48	1091.63
403.84	1091.49
404.21	1090.99
404.58	1091.58
404.95	1095.49
405.32	1096.07
405.68	1097.50
406.05	1100.36
406.42	1100.82
406.79	1096.49
407.16	1094.48
407.52	1093.05
407.89	1092.68
408.26	1094.43
408.63	1098.88
408.99	1099.37
409.36	1099.19
409.73	1099.98
410.10	1099.19
410.47	1097.62
410.83	1099.19
411.20	1100.43
411.57	1099.09
411.94	1098.37
412.30	1100.12
412.67	1099.09
413.04	1098.37
413.40	1099.19
413.77	1100.29
414.14	1098.25
414.51	1098.32
414.87	1099.96
415.24	1102.65
415.61	1100.59
415.97	1100.52
416.34	1101.46
416.71	1104.33
417.08	1104.85
417.44	1108.66
417.81	1111.29
418.18	1114.52
418.54	1112.29
418.91	1113.32
419.28	1116.93
419.64	1119.03
420.01	1122.99
420.38	1123.27
420.74	1122.66
421.11	1123.93
421.48	1128.19
421.84	1125.94
422.21	1131.86
422.58	1136.54
422.94	1136.10
423.31	1138.25
423.68	1143.54
424.04	1151.80
424.41	1153.04
424.77	1156.15
425.14	1159.20
425.51	1161.09
425.87	1161.56
426.24	1165.63
426.61	1172.77
426.97	1177.94
427.34	1187.85
427.70	1195.73
428.07	1205.31
428.44	1212.80
428.80	1222.91
429.17	1231.68
429.53	1241.89
429.90	1254.13
430.27	1270.00
430.63	1279.95
431.00	1292.07
431.36	1306.00
431.73	1323.48
432.09	1337.66
432.46	1354.61
432.83	1373.82
433.19	1397.11
433.56	1417.69
433.92	1442.71
434.29	1473.13
434.65	1500.85
435.02	1527.13
435.38	1561.16
435.75	1596.67
436.11	1634.07
436.48	1676.50
436.84	1719.47
437.21	1763.87
437.57	1809.87
437.94	1863.79
438.30	1917.58
438.67	1979.58
439.03	2038.40
439.40	2108.73
439.76	2173.84
440.13	2252.18
440.49	2329.09
440.86	2408.22
441.22	2493.19
441.59	2586.55
441.95	2683.73
442.32	2785.59
442.68	2909.05
443.05	3028.44
443.41	3159.02
443.78	3290.18
444.14	3436.66
444.51	3576.99
444.87	3751.53
445.24	3913.84
445.60	4098.82
445.96	4281.73
446.33	4498.84
446.69	4696.75
447.06	4926.41
447.42	5151.73
447.79	5392.50
448.15	5659.56
448.51	5936.07
448.88	6247.59
449.24	6558.13
449.61	6913.24
449.97	7269.91
450.33	7652.97
450.70	8022.12
451.06	8454.44
451.43	8857.17
451.79	9318.45
452.15	9805.04
452.52	10342.85
452.88	10898.94
453.24	11550.33
453.61	12251.51
453.97	12968.42
454.34	13666.20
454.70	14486.56
455.06	15285.71
455.43	16045.52
455.79	16744.36
456.15	17557.53
456.52	18291.45
456.88	19211.44
457.24	20127.11
457.61	21230.41
457.97	22295.92
458.33	23411.35
458.70	24460.85
459.06	25458.33
459.42	26498.52
459.79	27437.19
460.15	28499.30
460.51	29505.07
460.88	30611.33
461.24	31599.48
461.60	32749.27
461.96	33811.12
462.33	34864.88
462.69	35907.77
463.05	37054.47
463.42	38091.59
463.78	39031.22
464.14	39781.29
464.50	40528.11
464.87	41053.86
465.23	41391.65
465.59	41773.58
465.95	42078.67
466.32	42317.66
466.68	42566.41
467.04	42750.17
467.40	42795.20
467.77	42921.96
468.13	42846.36
468.49	42665.60
468.85	42536.12
469.22	42399.16
469.58	42151.74
469.94	42010.06
470.30	41813.39
470.66	41477.85
471.03	40967.59
471.39	40598.09
471.75	39884.06
472.11	39172.59
472.47	38653.20
472.84	38118.88
473.20	37402.23
473.56	36994.37
473.92	36417.40
474.28	35788.80
474.65	35132.00
475.01	34435.37
475.37	33601.92
475.73	32901.50
476.09	32173.19
476.45	31546.26
476.81	31001.40
477.18	30437.40
477.54	29963.77
477.90	29510.93
478.26	28913.67
478.62	28377.05
478.98	27956.55
479.34	27509.16
479.71	26945.63
480.07	26546.19
480.43	26118.67
480.79	25635.79
481.15	25171.88
481.51	24800.25
481.87	24455.93
482.23	24075.41
482.59	23744.97
482.96	23398.66
483.32	23093.39
483.68	22681.64
484.04	22334.07
484.40	21903.83
484.76	21487.41
485.12	21020.49
485.48	20589.67
485.84	20100.22
486.20	19682.22
486.56	19238.71
486.92	18832.18
487.28	18441.92
487.64	18045.04
488.00	17636.31
488.37	17240.11
488.73	16809.56
489.09	16322.43
489.45	15867.73
489.81	15404.14
490.17	14962.01
490.53	14566.02
490.89	14162.61
491.25	13749.59
491.61	13362.73
491.97	12961.25
492.33	12545.13
492.69	12202.80
493.05	11874.71
493.41	11553.14
493.77	11226.40
494.13	10934.61
494.49	10623.29
494.85	10340.72
495.21	10054.43
495.57	9802.56
495.93	9537.17
496.29	9285.05
496.64	9047.43
497.00	8793.56
497.36	8528.42
497.72	8275.06
498.08	8050.79
498.44	7818.98
498.80	7608.36
499.16	7408.61
499.52	7212.10
499.88	7026.48
500.24	6855.12
500.60	6699.22
500.96	6546.99
501.32	6395.05
501.68	6221.14
502.03	6047.80
502.39	5879.61
502.75	5705.59
503.11	5548.15
503.47	5414.62
503.83	5278.66
504.19	5151.59
504.55	5042.68
504.91	4930.83
505.26	4811.98
505.62	4689.52
505.98	4571.51
506.34	4443.27
506.70	4318.41
507.06	4208.99
507.42	4105.84
507.78	4013.57
508.13	3927.98
508.49	3851.47
508.85	3769.46
509.21	3697.95
509.57	3608.73
509.93	3523.70
510.28	3431.51
510.64	3345.87
511.00	3255.59
511.36	3178.45
511.72	3110.24
512.07	3045.83
512.43	2986.76
512.79	2928.15
513.15	2873.34
513.51	2809.56
513.86	2756.99
514.22	2698.73
514.58	2651.08
514.94	2598.88
515.30	2554.20
515.65	2509.41
516.01	2474.46
516.37	2428.12
516.73	2388.82
517.08	2350.76
517.44	2308.77
517.80	2265.66
518.16	2232.45
518.51	2196.31
518.87	2164.67
519.23	2136.30
519.59	2105.92
519.94	2072.50
520.30	2047.10
520.66	2010.73
521.01	1979.41
521.37	1949.88
521.73	1922.73
522.09	1897.12
522.44	1878.12
522.80	1856.65
523.16	1835.26
523.51	1808.88
523.87	1783.18
524.23	1761.37
524.58	1736.61
524.94	1717.53
525.30	1700.80
525.65	1681.82
526.01	1665.76
526.37	1650.92
526.72	1636.36
527.08	1620.63
527.44	1604.76
527.79	1587.21
528.15	1572.16
528.51	1552.62
528.86	1539.42
529.22	1522.89
529.58	1510.68
529.93	1495.46
530.29	1483.53
530.65	1469.65
531.00	1463.35
531.36	1452.77
531.71	1444.16
532.07	1432.29
532.43	1422.98
532.78	1406.83
533.14	1395.92
533.49	1387.00
533.85	1379.18
534.21	1368.53
534.56	1362.59
534.92	1353.30
535.27	1339.14
535.63	1327.95
535.98	1322.57
536.34	1316.53
536.69	1311.00
537.05	1305.74
537.41	1300.24
537.76	1292.68
538.12	1282.12
538.47	1271.54
538.83	1266.11
539.18	1261.43
539.54	1257.80
539.89	1255.09
540.25	1255.02
540.60	1253.61
540.96	1251.16
541.31	1243.62
541.67	1239.78
542.02	1233.46
542.38	1226.98
542.73	1220.47
543.09	1218.90
543.44	1219.42
543.80	1217.31
544.15	1216.66
544.51	1214.78
544.86	1212.16
545.22	1206.73
545.57	1203.92
545.93	1196.13
546.28	1194.02
546.64	1191.15
546.99	1185.32
547.35	1180.75
547.70	1182.74
548.05	1177.50
548.41	1176.19
548.76	1174.79
549.12	1171.86
549.47	1166.38
549.83	1166.97
550.18	1160.86
550.53	1160.25
550.89	1158.38
551.24	1157.25
551.60	1154.98
551.95	1155.85
552.30	1151.99
552.66	1151.71
553.01	1150.98
553.37	1150.79
553.72	1146.42
554.07	1146.93
554.43	1146.07
554.78	1142.37
555.13	1137.76
555.49	1139.79
555.84	1138.09
556.19	1134.81
556.55	1135.77
556.90	1138.37
557.26	1133.94
557.61	1136.19
557.96	1137.13
558.32	1135.93
558.67	1131.70
559.02	1133.94
559.37	1129.05
559.73	1126.78
560.08	1127.32
560.43	1126.50
560.79	1123.27
561.14	1122.31
561.49	1120.32
561.85	1118.87
562.20	1116.76
562.55	1117.70
562.90	1119.17
563.26	1118.24
563.61	1116.15
563.96	1117.49
564.32	1115.45
564.67	1114.47
565.02	1114.45
565.37	1114.59
565.73	1111.92
566.08	1114.66
566.43	1113.86
566.78	1114.47
567.14	1113.18
567.49	1116.51
567.84	1114.56
568.19	1112.36
568.54	1110.94
568.90	1110.14
569.25	1108.45
569.60	1103.56
569.95	1103.94
570.31	1099.28
570.66	1101.71
571.01	1100.19
571.36	1100.78
571.71	1101.18
572.06	1103.96
572.42	1098.53
572.77	1098.04
573.12	1101.39
573.47	1097.92
573.82	1097.01
574.18	1100.03
574.53	1097.10
574.88	1096.42
575.23	1096.59
575.58	1095.84
575.93	1092.09
576.28	1093.94
576.64	1092.05
576.99	1092.91
577.34	1098.09
577.69	1103.75
578.04	1105.72
578.39	1108.76
578.74	1109.13
579.09	1102.02
579.44	1097.34
579.80	1092.96
580.15	1088.33
580.50	1088.49
580.85	1091.86
581.20	1096.63
581.55	1100.43
581.90	1101.39
582.25	1102.46
582.60	1103.02
582.95	1098.88
583.30	1097.10
583.65	1096.68
584.00	1091.72
584.35	1091.37
584.71	1091.46
585.06	1090.85
585.41	1091.77
585.76	1095.79
586.11	1095.91
586.46	1093.05
586.81	1092.54
587.16	1092.75
587.51	1090.97
587.86	1090.55
588.21	1091.37
588.56	1094.25
588.91	1091.49
589.26	1093.85
589.61	1093.45
589.96	1095.72
590.31	1092.49
590.66	1094.86
591.01	1093.12
591.36	1093.87
591.71	1092.40
592.06	1093.97
592.41	1093.19
592.76	1091.91
593.10	1088.16
593.45	1086.92
593.80	1082.90
594.15	1077.63
594.50	1076.74
594.85	1080.77
595.20	1085.42
595.55	1089.17
595.90	1094.65
596.25	1096.42
596.60	1097.24
596.95	1093.24
597.30	1091.56
597.64	1101.36
597.99	1098.16
598.34	1093.83
598.69	1095.07
599.04	1094.67
599.39	1083.97
599.74	1086.71
600.09	1087.23
600.44	1085.00
600.78	1084.65
601.13	1084.91
601.48	1086.83
601.83	1086.66
602.18	1087.46
602.53	1088.51
602.88	1086.87
603.22	1082.78
603.57	1080.20
603.92	1078.80
604.27	1078.80
604.62	1081.84
604.97	1083.43
605.31	1087.58
605.66	1088.70
606.01	1087.23
606.36	1082.19
606.71	1080.91
607.05	1079.76
607.40	1080.04
607.75	1081.47
608.10	1084.56
608.44	1086.73
608.79	1086.50
609.14	1088.68
609.49	1091.18
609.84	1091.46
610.18	1093.31
610.53	1092.30
610.88	1091.60
611.23	1088.58
611.57	1091.04
611.92	1088.65
612.27	1090.01
612.62	1089.96
612.96	1089.92
613.31	1087.95
613.66	1088.16
614.00	1086.20
614.35	1082.90
614.70	1084.18
615.05	1081.44
615.39	1080.25
615.74	1082.29
616.09	1083.25
616.43	1081.63
616.78	1082.22
617.13	1079.55
617.47	1081.07
617.82	1085.17
618.17	1084.53
618.51	1085.31
618.86	1085.63
619.21	1085.42
619.55	1081.47
619.90	1080.67
620.25	1081.54
620.59	1082.61
620.94	1080.77
621.29	1081.73
621.63	1082.08
621.98	1081.14
622.32	1082.29
622.67	1081.44
623.02	1079.13
623.36	1083.69
623.71	1085.07
624.05	1085.17
624.40	1084.86
624.75	1087.20
625.09	1083.50
625.44	1081.87
625.78	1084.37
626.13	1085.59
626.48	1086.80
626.82	1089.19
627.17	1090.39
627.51	1085.70
627.86	1083.18
628.20	1079.01
628.55	1077.40
628.89	1076.97
629.24	1076.81
629.58	1079.50
629.93	1079.78
630.28	1079.81
630.62	1079.64
630.97	1081.75
631.31	1081.84
631.66	1080.67
632.00	1082.50
632.35	1079.62
632.69	1077.84
633.04	1078.50
633.38	1081.35
633.73	1081.91
634.07	1087.58
634.42	1091.25
634.76	1090.34
635.11	1094.86
635.45	1091.91
635.79	1087.72
636.14	1084.79
636.48	1083.29
636.83	1078.47
637.17	1079.17
637.52	1078.85
637.86	1079.06
638.21	1076.62
638.55	1074.59
638.89	1074.00
639.24	1076.72
639.58	1078.36
639.93	1083.13
640.27	1085.05
640.61	1086.59
640.96	1086.27
641.30	1085.56
641.65	1083.32
641.99	1088.47
642.33	1087.55
642.68	1084.00
643.02	1084.53
643.37	1088.63
643.71	1085.40
644.05	1084.74
644.40	1088.04
644.74	1086.73
645.08	1084.42
645.43	1084.56
645.77	1087.44
646.11	1088.56
646.46	1089.29
646.80	1088.16
647.14	1088.72
647.49	1087.93
647.83	1086.90
648.17	1088.70
648.52	1089.71
648.86	1088.14
649.20	1088.07
649.55	1087.25
649.89	1087.23
650.23	1087.46
650.57	1086.34
650.92	1083.74
651.26	1081.91
651.60	1080.60
651.95	1081.49
652.29	1081.51
652.63	1081.47
652.97	1085.77
653.32	1085.61
653.66	1086.66
654.00	1087.72
654.34	1088.63
654.69	1086.90
655.03	1087.06
655.37	1082.94
655.71	1085.75
656.05	1086.62
656.40	1081.98
656.74	1083.60
657.08	1084.21
657.42	1084.25
657.76	1085.70
658.11	1089.29
658.45	1084.46
658.79	1085.33
659.13	1083.95
659.47	1080.30
659.82	1078.45
660.16	1077.98
660.50	1076.88
660.84	1073.04
661.18	1071.87
661.52	1075.66
661.87	1079.62
662.21	1083.39
662.55	1086.36
662.89	1091.20
663.23	1089.07
663.57	1087.55
663.91	1086.48
664.25	1084.96
664.60	1082.31
664.94	1088.82
665.28	1090.97
665.62	1089.24
665.96	1092.96
666.30	1093.59
666.64	1090.81
666.98	1089.19
667.32	1090.24
667.66	1087.32
668.01	1086.78
668.35	1083.60
668.69	1083.25
669.03	1084.81
669.37	1083.55
669.71	1085.96
670.05	1086.83
670.39	1087.95
670.73	1087.13
671.07	1088.93
671.41	1087.93
671.75	1087.34
672.09	1086.36
672.43	1084.79
672.77	1085.14
673.11	1081.58
673.45	1084.25
673.79	1084.89
674.13	1080.11
674.47	1079.90
674.81	1080.20
675.15	1074.54
675.49	1069.79
675.83	1075.03
676.17	1075.45
676.51	1078.52
676.85	1080.77
677.19	1083.83
677.53	1085.42
677.87	1085.52
678.21	1085.42
678.55	1083.79
678.89	1086.71
679.23	1084.89
679.57	1085.31
679.90	1083.48
680.24	1084.46
680.58	1083.53
680.92	1081.47
681.26	1079.27
681.60	1081.47
681.94	1086.20
682.28	1085.42
682.62	1089.17
682.96	1089.19
683.29	1086.48
683.63	1080.13
683.97	1081.98
684.31	1080.41
684.65	1081.66
684.99	1080.86
685.33	1083.39
685.67	1081.75
686.00	1080.23
686.34	1080.09
686.68	1080.77
687.02	1077.40
687.36	1075.10
687.70	1075.73
688.03	1073.56
688.37	1074.94
688.71	1078.94
689.05	1080.18
689.39	1079.06
689.72	1079.62
690.06	1076.81
690.40	1074.42
690.74	1075.52
691.08	1080.06
691.41	1080.63
691.75	1084.25
692.09	1084.79
692.43	1084.25
692.76	1079.53
693.10	1080.32
693.44	1077.68
693.78	1079.97
694.11	1078.73
694.45	1083.53
694.79	1085.24
695.13	1086.92
695.46	1084.02
695.80	1084.60
696.14	1082.12
696.48	1079.64
696.81	1078.66
697.15	1078.07
697.49	1082.05
697.82	1083.76
698.16	1085.70
698.50	1086.17
698.83	1087.93
699.17	1085.91
699.51	1085.21
699.84	1085.14
700.18	1085.28
700.52	1083.46
700.85	1082.47
701.19	1078.52
701.53	1077.21
701.86	1077.58
702.20	1080.06
702.54	1081.02
702.87	1082.73
703.21	1082.26
703.55	1082.19
703.88	1082.36
704.22	1079.20
704.55	1081.54
704.89	1082.90
705.23	1081.35
705.56	1079.15
705.90	1079.92
706.23	1078.10
706.57	1075.03
706.91	1075.64
707.24	1078.64
707.58	1084.00
707.91	1081.96
708.25	1083.39
708.58	1085.96
708.92	1084.72
709.26	1082.94
709.59	1082.80
709.93	1083.48
710.26	1085.21
710.60	1085.84
710.93	1080.58
711.27	1081.42
711.60	1080.77
711.94	1078.54
712.27	1078.43
712.61	1081.56
712.94	1083.79
713.28	1084.44
713.61	1082.19
713.95	1081.16
714.28	1078.78
714.62	1075.83
714.95	1074.19
715.29	1075.73
715.62	1077.82
715.96	1082.59
716.29	1084.67
716.63	1084.86
716.96	1086.22
717.29	1086.62
717.63	1081.80
717.96	1084.77
718.30	1087.09
718.63	1081.84
718.97	1081.19
719.30	1084.91
719.63	1082.12
719.97	1081.98
720.30	1084.67
720.64	1081.33
720.97	1079.88
721.30	1076.11
721.64	1074.31
721.97	1073.42
722.31	1076.39
722.64	1077.23
722.97	1079.71
723.31	1079.24
723.64	1079.55
723.97	1077.65
724.31	1080.11
724.64	1078.61
724.98	1079.81
725.31	1078.75
725.64	1081.47
725.98	1079.24
726.31	1081.98
726.64	1083.34
726.97	1086.24
727.31	1084.86
727.64	1083.34
727.97	1080.34
728.31	1080.70
728.64	1083.69
728.97	1079.01
729.31	1077.65
729.64	1077.96
729.97	1078.59
730.30	1077.25
730.64	1079.92
730.97	1081.44
731.30	1085.10
731.63	1084.58
731.97	1081.82
732.30	1080.65
732.63	1079.81
732.96	1078.87
733.30	1076.93
733.63	1074.84
733.96	1077.14
734.29	1079.24
734.63	1079.60
734.96	1077.40
735.29	1079.69
735.62	1081.89
735.95	1081.70
736.29	1079.64
736.62	1081.09
736.95	1078.03
737.28	1072.85
737.61	1073.46
737.94	1072.90
738.28	1071.01
738.61	1075.15
738.94	1077.23
739.27	1075.73
739.60	1076.55
739.93	1081.58
740.27	1080.04
740.60	1077.42
740.93	1074.91
741.26	1073.35
741.59	1069.60
741.92	1068.36
742.25	1069.55
742.58	1070.68
742.91	1073.77
743.25	1076.67
743.58	1075.34
743.91	1076.39
744.24	1082.78
744.57	1080.41
744.90	1077.49
745.23	1081.37
745.56	1081.61
745.89	1076.74
746.22	1080.06
746.55	1082.15
746.88	1085.68
747.21	1086.62
747.54	1086.38
747.87	1085.96
748.20	1087.27
748.53	1084.02
748.87	1084.56
749.20	1085.17
749.53	1083.81
749.86	1080.25
750.19	1077.56
750.52	1074.63
750.85	1073.95
751.18	1073.51
751.51	1074.26
751.84	1076.15
752.16	1078.71
752.49	1076.58
752.82	1076.15
753.15	1078.82
753.48	1075.64
753.81	1073.84
754.14	1074.31
754.47	1074.35
754.80	1073.51
755.13	1075.41
755.46	1074.14
755.79	1075.76
756.12	1077.93
756.45	1080.16
756.78	1080.81
757.11	1082.26
757.43	1080.72
757.76	1078.82
758.09	1074.87
758.42	1076.53
758.75	1078.43
759.08	1080.30
759.41	1081.49
759.74	1081.87
760.07	1081.28
760.39	1079.90
760.72	1078.36
761.05	1077.84
761.38	1079.20
761.71	1080.41
762.04	1081.21
762.36	1083.08
762.69	1082.73
763.02	1082.26
763.35	1079.81
763.68	1077.35
764.01	1075.85
764.33	1074.33
764.66	1074.00
764.99	1076.79
765.32	1081.73
765.65	1080.16
765.97	1084.16
766.30	1083.11
766.63	1081.58
766.96	1077.21
767.28	1078.96
767.61	1077.09
767.94	1078.05
768.27	1077.25
768.59	1082.03
768.92	1082.22
769.25	1078.87
769.58	1080.30
769.90	1080.79
770.23	1078.05
770.56	1080.44
770.89	1084.02
771.21	1085.26
771.54	1088.07
771.87	1089.29
772.19	1089.66
772.52	1090.43
772.85	1089.07
773.17	1085.96
773.50	1084.00
773.83	1081.51
774.15	1080.48
774.48	1080.98
774.81	1082.29
775.13	1084.60
775.46	1086.27
775.79	1086.43
776.11	1083.74
776.44	1080.74
776.77	1079.27
777.09	1081.07
777.42	1081.54
777.74	1081.80
778.07	1082.97
778.40	1085.38
778.72	1083.83
779.05	1082.66
779.37	1083.57
779.70	1084.84
780.03	1081.16
780.35	1078.99
780.68	1079.41
781.00	1081.05
781.33	1080.39
781.65	1081.75
781.98	1081.84
782.31	1082.22
782.63	1079.55
782.96	1073.72
783.28	1076.65
783.61	1077.75
783.93	1074.96
784.26	1072.90
784.58	1080.86
784.91	1081.51
785.23	1079.41
785.56	1081.54
785.88	1084.67
786.21	1084.74
786.53	1084.02
786.86	1086.24
787.18	1086.62
787.51	1084.04
787.83	1078.99
788.16	1076.86
788.48	1077.23
788.81	1077.07
789.13	1078.12
789.46	1080.67
789.78	1080.58
790.10	1080.25
790.43	1081.12
790.75	1084.46
791.08	1081.94
791.40	1083.53
791.73	1083.50
792.05	1080.18
792.37	1077.82
792.70	1079.76
793.02	1077.91
793.35	1076.83
793.67	1078.59
793.99	1078.40
794.32	1077.65
794.64	1079.43
794.96	1076.60
795.29	1076.44
795.61	1076.34
795.93	1075.97
796.26	1073.91
796.58	1076.72
796.91	1076.90
797.23	1077.49
797.55	1079.01
797.87	1077.82
798.20	1077.51
798.52	1079.57
798.84	1079.15
799.17	1078.71
799.49	1080.06
799.81	1079.17
800.14	1076.81
800.46	1076.44
800.78	1079.53
801.10	1078.28
801.43	1077.93
801.75	1080.67
802.07	1081.30
802.40	1078.36
802.72	1079.67
803.04	1079.92
803.36	1075.83
803.69	1076.55
804.01	1076.37
804.33	1076.01
804.65	1077.89
804.97	1077.84
805.30	1076.08
805.62	1077.09
805.94	1076.60
806.26	1077.68
806.58	1081.89
806.91	1083.60
807.23	1082.31
807.55	1081.75
807.87	1078.33
808.19	1078.14
808.52	1079.03
808.84	1077.77
809.16	1077.79
809.48	1079.22
809.80	1077.58
810.12	1074.73
810.44	1077.58
810.77	1078.78
811.09	1078.54
811.41	1078.14
811.73	1076.60
812.05	1077.23
812.37	1077.75
812.69	1079.48
813.01	1077.33
813.33	1078.85
813.66	1076.62
813.98	1075.97
814.30	1072.74
814.62	1073.39
814.94	1075.22
815.26	1077.14
815.58	1077.70
815.90	1082.85
816.22	1084.53
816.54	1082.80
816.86	1080.04
817.18	1078.21
817.50	1078.64
817.82	1079.01
818.14	1076.58
818.46	1076.62
818.78	1077.04
819.10	1075.17
819.42	1074.70
819.74	1079.95
820.06	1080.77
820.38	1082.36
820.70	1082.01
821.02	1082.05
821.34	1081.84
821.66	1082.54
821.98	1081.21
822.30	1077.79
822.62	1075.90
822.94	1074.45
823.26	1072.57
823.58	1073.42
823.90	1077.21
824.22	1079.57
824.54	1077.63
824.86	1079.69
825.18	1079.71
825.50	1075.83
825.81	1077.75
826.13	1081.80
826.45	1081.23
826.77	1079.90
827.09	1078.78
827.41	1076.27
827.73	1076.18
828.05	1078.61
828.36	1078.14
828.68	1082.73
829.00	1081.21
829.32	1081.70
829.64	1079.78
829.96	1080.32
830.28	1078.71
830.59	1080.20
830.91	1077.14
831.23	1077.63
831.55	1078.12
831.87	1077.44
832.19	1077.33
832.50	1076.72
832.82	1074.21
833.14	1075.15
833.46	1076.97
833.78	1078.59
834.09	1078.12
834.41	1077.00
834.73	1077.65
835.05	1077.79
835.36	1077.02
835.68	1077.89
836.00	1080.77
836.32	1078.10
836.63	1077.16
836.95	1075.24
837.27	1073.93
837.59	1077.00
837.90	1079.76
838.22	1078.28
838.54	1079.78
838.85	1080.41
839.17	1076.06
839.49	1076.18
839.80	1076.20
840.12	1077.91
840.44	1079.55
840.76	1078.96
841.07	1079.43
841.39	1084.37
841.71	1080.63
842.02	1083.50
842.34	1080.70
842.65	1077.56
842.97	1074.28
843.29	1076.48
843.60	1070.23
843.92	1073.32
844.24	1074.12
844.55	1072.55
844.87	1072.92
845.18	1075.43
845.50	1074.77
845.82	1074.31
846.13	1071.90
846.45	1070.00
846.76	1071.59
847.08	1075.62
847.40	1076.95
847.71	1079.34
848.03	1079.34
848.34	1079.01
848.66	1077.28
848.97	1076.74
849.29	1075.08
849.60	1076.60
849.92	1074.82
850.24	1074.42
850.55	1076.04
850.87	1077.72
851.18	1074.14
851.50	1075.13
851.81	1075.97
852.13	1072.83
852.44	1074.66
852.76	1075.78
853.07	1074.56
853.39	1073.32
853.70	1073.35
854.01	1070.75
854.33	1074.10
854.64	1073.56
854.96	1073.79
855.27	1073.84
855.59	1075.52
855.90	1074.38
856.22	1075.03
856.53	1076.65
856.84	1078.50
857.16	1079.50
857.47	1077.61
857.79	1078.52
858.10	1076.86
858.41	1076.55
858.73	1074.54
859.04	1077.25
859.36	1075.99
859.67	1073.93
859.98	1071.73
860.30	1071.92
860.61	1071.15
860.92	1073.79
861.24	1079.22
861.55	1082.36
861.87	1082.97
862.18	1082.97
862.49	1083.32
862.81	1081.61
863.12	1080.30
863.43	1081.58
863.74	1077.65
864.06	1074.73
864.37	1070.51
864.68	1069.62
865.00	1071.59
865.31	1075.73
865.62	1078.12
865.94	1082.80
866.25	1081.44
866.56	1077.49
866.87	1075.94
867.19	1074.45
867.50	1074.38
867.81	1077.77
868.12	1078.68
868.44	1077.56
868.75	1078.68
869.06	1077.96
869.37	1078.66
869.68	1078.75
870.00	1081.05
870.31	1082.94
870.62	1083.13
870.93	1082.19
871.24	1082.33
871.56	1083.20
871.87	1082.26
872.18	1083.67
872.49	1085.45
872.80	1086.85
873.12	1089.00
873.43	1090.27
873.74	1088.51
874.05	1084.46
874.36	1082.40
874.67	1079.55
874.98	1076.76
875.29	1074.77
875.61	1076.37
875.92	1075.48
876.23	1074.89
876.54	1076.04
876.85	1077.23
877.16	1075.50
877.47	1075.80
877.78	1075.15
878.09	1077.98
878.40	1081.73
878.72	1084.28
879.03	1087.76
879.34	1088.56
879.65	1086.78
879.96	1083.29
880.27	1080.11
880.58	1077.89
880.89	1078.71
881.20	1076.58
881.51	1076.48
881.82	1078.52
882.13	1077.33
882.44	1075.50
882.75	1075.31
883.06	1074.38
883.37	1071.92
883.68	1071.75
883.99	1072.41
884.30	1071.03
884.61	1073.65
884.92	1077.42
885.23	1079.69
885.54	1082.85
885.85	1085.38
886.16	1084.44
886.47	1085.38
886.78	1083.71
887.08	1079.83
887.39	1078.12
887.70	1077.68
888.01	1074.21
888.32	1075.08
888.63	1076.06
888.94	1078.38
889.25	1078.21
889.56	1082.40
889.87	1084.30
890.17	1083.08
890.48	1082.61
890.79	1082.87
891.10	1078.89
891.41	1077.02
891.72	1077.65
892.03	1076.83
892.34	1076.74
892.64	1075.78
892.95	1076.48
893.26	1079.95
893.57	1079.22
893.88	1076.23
894.18	1081.44
894.49	1082.08
894.80	1077.04
895.11	1075.99
895.42	1076.97
895.72	1076.39
896.03	1074.31
896.34	1075.24
896.65	1076.01
896.96	1076.53
897.26	1075.45
897.57	1078.96
897.88	1078.17
898.19	1079.81
898.49	1080.04
898.80	1081.12
899.11	1077.82
899.41	1080.56
899.72	1075.83
900.03	1080.23
900.34	1077.09
900.64	1076.88
900.95	1076.67
901.26	1076.20
901.56	1072.20
901.87	1072.64
902.18	1073.53
902.48	1071.26
902.79	1076.72
903.10	1076.53
903.40	1075.48
903.71	1074.35
904.02	1074.87
904.32	1074.66
904.63	1076.81
904.94	1077.93
905.24	1078.52
905.55	1079.36
905.85	1079.55
906.16	1074.75
906.47	1074.45
906.77	1075.73
907.08	1077.49
907.38	1075.52
907.69	1076.76
908.00	1076.46
908.30	1075.10
908.61	1077.09
908.91	1077.84
909.22	1079.83
909.52	1078.85
909.83	1078.21
910.14	1072.88
910.44	1073.16
910.75	1074.68
911.05	1076.27
911.36	1078.00
911.66	1079.17
911.97	1078.73
912.27	1074.98
912.58	1073.84
912.88	1068.81
913.19	1068.24
913.49	1068.97
913.80	1070.42
914.10	1072.71
914.41	1077.21
914.71	1079.01
915.01	1078.00
915.32	1076.55
915.62	1074.98
915.93	1074.87
916.23	1074.28
916.54	1073.77
916.84	1076.04
917.15	1075.97
917.45	1075.10
917.75	1073.91
918.06	1073.72
918.36	1074.47
918.67	1075.57
918.97	1079.01
919.27	1081.35
919.58	1081.94
919.88	1084.11
920.18	1084.63
920.49	1080.98
920.79	1081.68
921.10	1079.17
921.40	1075.13
921.70	1070.35
922.01	1068.83
922.31	1066.09
922.61	1068.90
922.92	1067.17
923.22	1072.27
923.52	1074.05
923.82	1075.66
924.13	1077.68
924.43	1079.38
924.73	1079.55
925.04	1079.38
925.34	1078.14
925.64	1079.31
925.94	1080.91
926.25	1081.44
926.55	1083.34
926.85	1084.67
927.15	1077.89
927.46	1075.43
927.76	1074.70
928.06	1071.29
928.36	1071.66
928.67	1077.11
928.97	1077.11
929.27	1076.18
929.57	1080.41
929.87	1078.28
930.18	1073.56
930.48	1075.85
930.78	1074.35
931.08	1074.52
931.38	1079.81
931.69	1084.63
931.99	1085.07
932.29	1084.42
932.59	1082.69
932.89	1076.58
933.19	1072.62
933.49	1070.82
933.80	1072.04
934.10	1072.57
934.40	1075.48
934.70	1076.60
935.00	1082.57
935.30	1081.21
935.60	1081.35
935.90	1077.93
936.20	1080.46
936.50	1074.66
936.81	1074.77
937.11	1073.02
937.41	1075.73
937.71	1072.83
938.01	1072.39
938.31	1074.38
938.61	1074.52
938.91	1072.95
939.21	1075.34
939.51	1075.45
939.81	1072.85
940.11	1072.34
940.41	1072.57
940.71	1070.26
941.01	1073.93
941.31	1076.39
941.61	1078.80
941.91	1083.08
942.21	1087.02
942.51	1083.18
942.81	1082.80
943.11	1081.63
943.41	1076.60
943.71	1073.67
944.01	1073.84
944.31	1074.52
944.61	1075.15
944.90	1078.00
945.20	1077.25
945.50	1075.85
945.80	1075.45
946.10	1073.02
946.40	1075.05
946.70	1078.14
947.00	1081.96
947.30	1082.22
947.60	1084.53
947.89	1081.82
948.19	1081.91
948.49	1083.29
948.79	1083.93
949.09	1084.44
949.39	1082.54
949.69	1079.69
949.98	1078.19
950.28	1077.23
950.58	1076.15
950.88	1078.73
951.18	1079.36
951.48	1078.19
951.77	1079.74
952.07	1079.29
952.37	1079.88
952.67	1080.41
952.97	1081.58
953.26	1078.21
953.56	1076.76
953.86	1075.59
954.16	1074.21
954.45	1076.60
954.75	1080.37
955.05	1081.68
955.35	1080.58
955.64	1084.25
955.94	1078.64
956.24	1077.40
956.54	1077.16
956.83	1078.24
957.13	1072.78
957.43	1072.88
957.72	1073.74
958.02	1075.41
958.32	1075.13
958.61	1077.93
958.91	1079.92
959.21	1075.64
959.50	1075.83
959.80	1076.27
960.10	1074.38
960.39	1077.28
960.69	1082.71
960.99	1079.03
961.28	1076.65
961.58	1079.27
961.87	1076.79
962.17	1075.08
962.47	1077.77
962.76	1080.44
963.06	1079.62
963.36	1079.48
963.65	1075.17
963.95	1075.31
964.24	1076.86
964.54	1077.04
964.83	1077.96
965.13	1081.56
965.42	1084.21
965.72	1080.81
966.02	1082.05
966.31	1078.12
966.61	1078.36
966.90	1073.42
967.20	1074.68
967.49	1072.46
967.79	1074.94
968.08	1076.51
968.38	1078.05
968.67	1075.43
968.97	1077.44
969.26	1078.54
969.56	1075.55
969.85	1077.25
970.15	1079.03
970.44	1078.05
970.74	1078.75
971.03	1080.65
971.32	1080.53
971.62	1083.04
971.91	1081.37
972.21	1080.25
972.50	1076.83
972.80	1074.12
973.09	1072.20
973.38	1072.32
973.68	1068.69
973.97	1072.11
974.27	1073.67
974.56	1074.82
974.85	1075.57
975.15	1079.31
975.44	1079.83
975.73	1079.36
976.03	1078.28
976.32	1079.60
976.61	1076.13
976.91	1075.48
977.20	1076.95
977.49	1075.85
977.79	1074.40
978.08	1077.70
978.37	1077.16
978.67	1077.09
978.96	1079.57
979.25	1080.34
979.55	1081.05
979.84	1080.58
980.13	1078.75
980.42	1076.88
980.72	1079.29
981.01	1078.57
981.30	1077.91
981.59	1080.51
981.89	1078.57
982.18	1076.48
982.47	1078.38
982.76	1078.28
983.06	1079.03
983.35	1082.10
983.64	1082.01
983.93	1077.49
984.22	1079.97
984.52	1076.11
984.81	1077.58
985.10	1075.85
985.39	1078.66
985.68	1077.84
985.97	1075.80
986.27	1071.90
986.56	1073.72
986.85	1072.57
987.14	1074.75
987.43	1077.61
987.72	1080.27
988.01	1081.42
988.31	1083.95
988.60	1080.48
988.89	1083.06
989.18	1082.69
989.47	1080.77
989.76	1079.85
990.05	1080.27
990.34	1080.56
990.63	1078.61
990.92	1077.58
991.21	1076.13
991.51	1076.01
991.80	1074.24
992.09	1075.05
992.38	1079.17
992.67	1078.73
992.96	1076.76
993.25	1073.88
993.54	1077.61
993.83	1076.20
994.12	1079.50
994.41	1084.67
994.70	1090.24
994.99	1086.29
995.28	1084.28
995.57	1082.80
995.86	1080.44
996.15	1074.33
996.44	1073.79
996.73	1074.42
997.02	1073.51
997.31	1073.09
997.59	1076.18
997.88	1080.13
998.17	1082.19
998.46	1081.28
998.75	1077.21
999.04	1079.24
999.33	1076.32
999.62	1072.48
999.91	1071.08
1000.20	1074.47
1000.49	1070.70
1000.77	1071.22
1001.06	1074.19
1001.35	1075.97
1001.64	1077.18
1001.93	1079.74
1002.22	1082.45
1002.51	1079.46
1002.79	1080.02
1003.08	1079.69
1003.37	1081.14
1003.66	1076.08
1003.95	1075.90
1004.23	1074.80
1004.52	1074.68
1004.81	1070.28
1005.10	1070.63
1005.39	1073.91
1005.67	1074.38
1005.96	1073.98
1006.25	1075.38
1006.54	1076.37
1006.83	1071.45
1007.11	1071.05
1007.40	1071.17
1007.69	1070.75
1007.97	1075.24
1008.26	1077.70
1008.55	1078.64
1008.84	1078.52
1009.12	1075.08
1009.41	1072.41
1009.70	1074.40
1009.98	1072.85
1010.27	1072.46
1010.56	1075.55
1010.85	1074.26
1011.13	1072.81
1011.42	1074.49
1011.71	1073.93
1011.99	1074.31
1012.28	1075.99
1012.56	1077.37
1012.85	1076.83
1013.14	1076.25
1013.42	1076.90
1013.71	1076.88
1014.00	1078.05
1014.28	1078.26
1014.57	1081.96
1014.85	1083.36
1015.14	1084.44
1015.43	1081.84
1015.71	1082.69
1016.00	1082.80
1016.28	1082.12
1016.57	1078.89
1016.85	1082.61
1017.14	1081.96
1017.43	1077.82
1017.71	1078.45
1018.00	1079.27
1018.28	1077.11
1018.57	1078.12
1018.85	1080.51
1019.14	1084.25
1019.42	1082.80
1019.71	1082.71
1019.99	1082.12
1020.28	1079.53
1020.56	1073.35
1020.85	1076.37
1021.13	1075.38
1021.42	1072.48
1021.70	1078.47
1021.99	1077.91
1022.27	1078.00
1022.55	1067.87
1022.84	1085.89
>>>>>End Processed Spectral Data<<<<<
