SpectraSuite Data File
++++++++++++++++++++++++++++++++++++
Date: Mon Aug 26 10:25:47 PDT 2019
User: corrico
Dark Spectrum Present: No
Reference Spectrum Present: No
Number of Sampled Component Spectra: 1
Spectrometers: USB2+H06089
Integration Time (usec): 10000 (USB2+H06089)
Spectra Averaged: 2 (USB2+H06089)
Boxcar Smoothing: 2 (USB2+H06089)
Correct for Electrical Dark: No (USB2+H06089)
Strobe/Lamp Enabled: No (USB2+H06089)
Correct for Detector Non-linearity: No (USB2+H06089)
Correct for Stray Light: No (USB2+H06089)
Number of Pixels in Processed Spectrum: 2048
>>>>>Begin Processed Spectral Data<<<<<
339.70	1023.98
340.07	1023.98
340.45	982.09
340.82	965.94
341.19	939.26
341.57	924.75
341.94	921.00
342.31	910.00
342.69	891.51
343.06	894.79
343.43	878.17
343.81	875.83
344.18	876.30
344.55	878.87
344.93	888.47
345.30	899.23
345.67	912.81
346.04	932.70
346.42	954.24
346.79	960.56
347.16	975.07
347.54	987.00
347.91	994.73
348.28	998.71
348.65	997.77
349.03	998.71
349.40	1005.26
349.77	1011.81
350.14	1018.84
350.52	1033.35
350.89	1035.69
351.26	1043.88
351.63	1055.11
352.01	1053.94
352.38	1056.05
352.75	1063.31
353.12	1058.16
353.50	1058.39
353.87	1074.54
354.24	1076.65
354.61	1081.09
354.98	1089.29
355.36	1077.82
355.73	1079.92
356.10	1075.48
356.47	1078.75
356.84	1072.20
357.22	1089.05
357.59	1092.56
357.96	1105.67
358.33	1098.18
358.70	1105.20
359.08	1097.24
359.45	1093.03
359.82	1090.92
360.19	1097.71
360.56	1097.01
360.94	1089.29
361.31	1084.60
361.68	1078.99
362.05	1078.52
362.42	1072.20
362.79	1090.46
363.16	1092.09
363.54	1088.35
363.91	1085.07
364.28	1091.63
364.65	1079.92
365.02	1078.05
365.39	1084.37
365.76	1091.39
366.14	1088.35
366.51	1088.12
366.88	1089.05
367.25	1077.82
367.62	1071.50
367.99	1069.86
368.36	1072.20
368.73	1066.58
369.10	1071.97
369.48	1078.52
369.85	1068.45
370.22	1064.24
370.59	1065.41
370.96	1065.65
371.33	1056.28
371.70	1064.24
372.07	1057.69
372.44	1058.86
372.81	1062.60
373.18	1068.45
373.55	1076.88
373.93	1085.07
374.30	1085.77
374.67	1067.99
375.04	1071.03
375.41	1063.07
375.78	1055.11
376.15	1061.67
376.52	1076.88
376.89	1068.22
377.26	1067.28
377.63	1070.56
378.00	1067.28
378.37	1063.77
378.74	1065.41
379.11	1065.41
379.48	1075.48
379.85	1071.73
380.22	1081.09
380.59	1088.82
380.96	1089.75
381.33	1082.50
381.70	1082.50
382.07	1068.45
382.44	1059.09
382.81	1058.39
383.18	1059.33
383.55	1048.56
383.92	1061.43
384.29	1068.22
384.66	1072.67
385.03	1068.45
385.40	1083.67
385.77	1074.31
386.14	1072.20
386.51	1076.18
386.88	1080.63
387.25	1082.03
387.62	1086.94
387.99	1083.67
388.36	1074.31
388.73	1076.41
389.10	1066.58
389.46	1064.71
389.83	1072.67
390.20	1083.20
390.57	1077.11
390.94	1075.01
391.31	1075.71
391.68	1069.39
392.05	1051.13
392.42	1047.16
392.79	1057.69
393.16	1058.16
393.53	1058.62
393.89	1070.56
394.26	1085.54
394.63	1076.41
395.00	1067.28
395.37	1069.62
395.74	1059.09
396.11	1056.99
396.48	1060.96
396.84	1070.80
397.21	1068.45
397.58	1083.43
397.95	1080.63
398.32	1079.22
398.69	1082.73
399.06	1082.26
399.42	1076.18
399.79	1074.54
400.16	1070.09
400.53	1070.09
400.90	1065.88
401.27	1077.35
401.64	1080.16
402.00	1085.07
402.37	1090.22
402.74	1088.35
403.11	1066.82
403.48	1063.54
403.84	1067.75
404.21	1064.48
404.58	1079.92
404.95	1090.22
405.32	1093.50
405.68	1098.18
406.05	1092.80
406.42	1078.99
406.79	1074.07
407.16	1069.62
407.52	1066.58
407.89	1074.07
408.26	1078.99
408.63	1088.35
408.99	1094.20
409.36	1096.31
409.73	1094.20
410.10	1098.88
410.47	1092.80
410.83	1086.48
411.20	1089.75
411.57	1087.41
411.94	1084.37
412.30	1087.88
412.67	1089.99
413.04	1082.97
413.40	1091.63
413.77	1083.20
414.14	1081.56
414.51	1086.71
414.87	1082.50
415.24	1069.16
415.61	1076.65
415.97	1078.28
416.34	1072.67
416.71	1073.84
417.08	1080.63
417.44	1092.09
417.81	1089.52
418.18	1082.73
418.54	1077.82
418.91	1072.20
419.28	1061.43
419.64	1067.75
420.01	1074.07
420.38	1078.99
420.74	1079.92
421.11	1081.80
421.48	1079.92
421.84	1078.52
422.21	1081.09
422.58	1079.69
422.94	1083.43
423.31	1083.20
423.68	1088.82
424.04	1095.14
424.41	1094.43
424.77	1084.37
425.14	1075.24
425.51	1072.20
425.87	1056.75
426.24	1061.20
426.61	1063.54
426.97	1064.94
427.34	1058.39
427.70	1062.14
428.07	1057.22
428.44	1062.84
428.80	1073.37
429.17	1077.35
429.53	1075.01
429.90	1075.94
430.27	1064.24
430.63	1057.92
431.00	1059.56
431.36	1058.16
431.73	1063.31
432.09	1076.88
432.46	1086.24
432.83	1098.41
433.19	1108.48
433.56	1097.48
433.92	1086.24
434.29	1075.94
434.65	1067.05
435.02	1065.18
435.38	1070.09
435.75	1081.09
436.11	1089.05
436.48	1083.90
436.84	1079.22
437.21	1084.84
437.57	1086.71
437.94	1086.94
438.30	1094.67
438.67	1108.24
439.03	1102.86
439.40	1101.46
439.76	1091.16
440.13	1080.39
440.49	1071.50
440.86	1071.73
441.22	1058.39
441.59	1056.99
441.95	1064.94
442.32	1061.20
442.68	1055.11
443.05	1065.41
443.41	1072.43
443.78	1075.01
444.14	1080.86
444.51	1089.29
444.87	1089.99
445.24	1089.05
445.60	1089.52
445.96	1090.46
446.33	1086.01
446.69	1083.67
447.06	1089.05
447.42	1085.07
447.79	1086.71
448.15	1089.75
448.51	1092.80
448.88	1087.41
449.24	1085.07
449.61	1084.84
449.97	1074.31
450.33	1076.18
450.70	1070.80
451.06	1073.60
451.43	1069.39
451.79	1085.07
452.15	1084.84
452.52	1087.41
452.88	1091.16
453.24	1096.07
453.61	1097.48
453.97	1090.92
454.34	1086.24
454.70	1078.75
455.06	1069.86
455.43	1067.28
455.79	1064.48
456.15	1072.67
456.52	1066.82
456.88	1068.92
457.24	1069.39
457.61	1076.88
457.97	1074.54
458.33	1078.28
458.70	1078.28
459.06	1073.14
459.42	1071.03
459.79	1071.03
460.15	1073.14
460.51	1068.69
460.88	1066.35
461.24	1071.97
461.60	1072.67
461.96	1074.31
462.33	1084.14
462.69	1095.84
463.05	1099.58
463.42	1101.69
463.78	1101.46
464.14	1091.39
464.50	1077.82
464.87	1061.20
465.23	1063.54
465.59	1074.77
465.95	1087.18
466.32	1101.22
466.68	1100.75
467.04	1094.20
467.40	1082.50
467.77	1080.86
468.13	1077.11
468.49	1086.24
468.85	1086.01
469.22	1085.54
469.58	1078.52
469.94	1077.58
470.30	1078.05
470.66	1080.63
471.03	1086.48
471.39	1086.48
471.75	1088.35
472.11	1085.77
472.47	1100.29
472.84	1097.01
473.20	1099.82
473.56	1092.80
473.92	1090.46
474.28	1071.73
474.65	1071.73
475.01	1076.65
475.37	1084.37
475.73	1075.94
476.09	1077.82
476.45	1073.37
476.81	1066.35
477.18	1064.24
477.54	1066.35
477.90	1065.65
478.26	1069.16
478.62	1068.92
478.98	1056.75
479.34	1063.31
479.71	1073.37
480.07	1081.56
480.43	1088.35
480.79	1099.35
481.15	1098.88
481.51	1091.39
481.87	1081.80
482.23	1078.28
482.59	1071.50
482.96	1078.05
483.32	1079.69
483.68	1077.35
484.04	1070.33
484.40	1069.16
484.76	1057.22
485.12	1058.86
485.48	1064.24
485.84	1067.52
486.20	1073.37
486.56	1078.75
486.92	1070.33
487.28	1080.16
487.64	1089.05
488.00	1085.31
488.37	1088.58
488.73	1096.31
489.09	1084.84
489.45	1083.20
489.81	1093.26
490.17	1089.75
490.53	1090.22
490.89	1095.37
491.25	1083.90
491.61	1082.50
491.97	1085.07
492.33	1081.56
492.69	1081.09
493.05	1093.03
493.41	1089.52
493.77	1086.94
494.13	1086.94
494.49	1081.33
494.85	1076.88
495.21	1076.41
495.57	1076.41
495.93	1078.52
496.29	1077.11
496.64	1081.33
497.00	1080.16
497.36	1085.54
497.72	1084.37
498.08	1086.71
498.44	1090.92
498.80	1089.75
499.16	1090.22
499.52	1087.88
499.88	1091.39
500.24	1077.58
500.60	1082.26
500.96	1077.35
501.32	1071.97
501.68	1059.56
502.03	1060.26
502.39	1056.75
502.75	1053.48
503.11	1064.24
503.47	1075.24
503.83	1084.84
504.19	1083.90
504.55	1078.28
504.91	1063.31
505.26	1055.82
505.62	1052.54
505.98	1062.60
506.34	1071.26
506.70	1084.84
507.06	1097.24
507.42	1095.84
507.78	1086.94
508.13	1096.31
508.49	1101.22
508.85	1097.01
509.21	1104.03
509.57	1110.35
509.93	1097.95
510.28	1094.67
510.64	1089.05
511.00	1078.05
511.36	1079.69
511.72	1082.26
512.07	1071.26
512.43	1077.58
512.79	1093.03
513.15	1085.07
513.51	1082.26
513.86	1099.82
514.22	1108.01
514.58	1093.26
514.94	1104.50
515.30	1113.16
515.65	1101.46
516.01	1096.54
516.37	1111.52
516.73	1105.90
517.08	1109.18
517.44	1112.46
517.80	1102.86
518.16	1084.60
518.51	1081.80
518.87	1066.35
519.23	1066.11
519.59	1067.99
519.94	1065.41
520.30	1070.56
520.66	1084.37
521.01	1081.56
521.37	1071.50
521.73	1085.07
522.09	1081.33
522.44	1081.80
522.80	1081.56
523.16	1095.60
523.51	1092.09
523.87	1097.71
524.23	1102.63
524.58	1104.97
524.94	1105.90
525.30	1108.01
525.65	1103.80
526.01	1091.63
526.37	1094.90
526.72	1092.09
527.08	1091.39
527.44	1085.31
527.79	1086.71
528.15	1088.35
528.51	1096.31
528.86	1094.67
529.22	1100.52
529.58	1090.92
529.93	1089.99
530.29	1087.41
530.65	1090.92
531.00	1093.73
531.36	1102.39
531.71	1093.97
532.07	1097.01
532.43	1089.75
532.78	1082.26
533.14	1097.48
533.49	1101.92
533.85	1092.56
534.21	1100.99
534.56	1098.41
534.92	1087.65
535.27	1089.05
535.63	1095.14
535.98	1086.71
536.34	1087.41
536.69	1082.26
537.05	1075.71
537.41	1069.62
537.76	1072.20
538.12	1072.90
538.47	1077.35
538.83	1090.46
539.18	1096.78
539.54	1103.33
539.89	1106.14
540.25	1102.39
540.60	1099.35
540.96	1101.92
541.31	1089.05
541.67	1086.94
542.02	1083.90
542.38	1082.26
542.73	1077.82
543.09	1090.46
543.44	1087.88
543.80	1093.73
544.15	1084.14
544.51	1076.88
544.86	1079.22
545.22	1080.63
545.57	1083.67
545.93	1082.73
546.28	1092.56
546.64	1079.92
546.99	1085.54
547.35	1083.20
547.70	1092.80
548.05	1091.16
548.41	1095.60
548.76	1087.18
549.12	1081.09
549.47	1078.52
549.83	1073.84
550.18	1070.80
550.53	1080.86
550.89	1081.56
551.24	1081.56
551.60	1087.41
551.95	1092.56
552.30	1095.14
552.66	1086.71
553.01	1085.54
553.37	1081.80
553.72	1083.67
554.07	1071.73
554.43	1081.80
554.78	1075.24
555.13	1076.41
555.49	1064.94
555.84	1064.01
556.19	1063.31
556.55	1074.07
556.90	1079.22
557.26	1082.50
557.61	1088.35
557.96	1089.05
558.32	1090.22
558.67	1076.18
559.02	1072.20
559.37	1078.75
559.73	1085.54
560.08	1083.90
560.43	1094.90
560.79	1103.33
561.14	1093.73
561.49	1080.86
561.85	1080.86
562.20	1071.03
562.55	1070.33
562.90	1067.05
563.26	1072.20
563.61	1068.22
563.96	1077.11
564.32	1069.62
564.67	1068.22
565.02	1067.75
565.37	1075.48
565.73	1078.99
566.08	1091.63
566.43	1097.95
566.78	1107.07
567.14	1100.75
567.49	1092.33
567.84	1082.50
568.19	1084.84
568.54	1075.01
568.90	1073.14
569.25	1068.22
569.60	1071.97
569.95	1057.22
570.31	1061.43
570.66	1071.03
571.01	1079.69
571.36	1084.84
571.71	1091.63
572.06	1092.33
572.42	1083.20
572.77	1086.24
573.12	1084.14
573.47	1083.20
573.82	1084.14
574.18	1097.71
574.53	1084.60
574.88	1076.18
575.23	1083.43
575.58	1089.29
575.93	1076.18
576.28	1080.86
576.64	1075.94
576.99	1071.50
577.34	1057.45
577.69	1055.82
578.04	1063.07
578.39	1074.77
578.74	1076.88
579.09	1082.03
579.44	1085.07
579.80	1077.58
580.15	1079.69
580.50	1085.77
580.85	1087.65
581.20	1089.52
581.55	1080.39
581.90	1078.05
582.25	1079.92
582.60	1084.84
582.95	1075.24
583.30	1090.22
583.65	1098.88
584.00	1094.43
584.35	1089.99
584.71	1092.09
585.06	1096.54
585.41	1078.28
585.76	1078.28
586.11	1082.97
586.46	1094.20
586.81	1086.48
587.16	1091.86
587.51	1095.14
587.86	1076.65
588.21	1072.43
588.56	1069.86
588.91	1086.71
589.26	1081.09
589.61	1090.22
589.96	1093.26
590.31	1100.52
590.66	1087.41
591.01	1090.22
591.36	1100.75
591.71	1086.71
592.06	1077.35
592.41	1070.33
592.76	1064.24
593.10	1048.33
593.45	1062.37
593.80	1060.73
594.15	1065.18
594.50	1072.43
594.85	1079.69
595.20	1068.92
595.55	1080.39
595.90	1079.92
596.25	1079.46
596.60	1080.86
596.95	1087.88
597.30	1086.01
597.64	1157.86
597.99	1161.14
598.34	1165.59
598.69	1162.54
599.04	1159.97
599.39	1087.41
599.74	1081.80
600.09	1085.07
600.44	1097.71
600.78	1094.90
601.13	1092.56
601.48	1093.73
601.83	1082.26
602.18	1084.14
602.53	1080.86
602.88	1085.54
603.22	1097.01
603.57	1108.01
603.92	1098.41
604.27	1095.60
604.62	1094.67
604.97	1078.28
605.31	1070.09
605.66	1069.39
606.01	1077.11
606.36	1086.48
606.71	1093.03
607.05	1092.56
607.40	1089.52
607.75	1095.14
608.10	1097.01
608.44	1102.16
608.79	1107.78
609.14	1113.16
609.49	1116.44
609.84	1111.75
610.18	1105.90
610.53	1100.05
610.88	1100.75
611.23	1084.84
611.57	1080.16
611.92	1081.56
612.27	1077.35
612.62	1075.94
612.96	1073.84
613.31	1076.88
613.66	1079.69
614.00	1080.39
614.35	1074.77
614.70	1085.77
615.05	1078.99
615.39	1070.33
615.74	1080.16
616.09	1079.69
616.43	1087.65
616.78	1104.26
617.13	1104.50
617.47	1097.71
617.82	1088.35
618.17	1076.65
618.51	1061.20
618.86	1057.92
619.21	1055.35
619.55	1067.75
619.90	1074.07
620.25	1079.92
620.59	1082.97
620.94	1093.03
621.29	1093.50
621.63	1093.50
621.98	1082.50
622.32	1080.39
622.67	1071.97
623.02	1068.92
623.36	1074.07
623.71	1076.41
624.05	1075.01
624.40	1082.50
624.75	1077.11
625.09	1066.82
625.44	1071.97
625.78	1075.48
626.13	1070.09
626.48	1070.09
626.82	1070.33
627.17	1073.60
627.51	1075.01
627.86	1078.05
628.20	1088.12
628.55	1088.58
628.89	1083.67
629.24	1087.18
629.58	1082.73
629.93	1072.20
630.28	1071.03
630.62	1078.28
630.97	1077.82
631.31	1077.35
631.66	1089.99
632.00	1103.09
632.35	1105.67
632.69	1106.84
633.04	1109.18
633.38	1101.22
633.73	1097.95
634.07	1095.37
634.42	1089.99
634.76	1089.29
635.11	1096.07
635.45	1092.80
635.79	1080.63
636.14	1075.24
636.48	1074.31
636.83	1067.75
637.17	1065.18
637.52	1075.71
637.86	1078.75
638.21	1084.14
638.55	1093.73
638.89	1095.84
639.24	1094.20
639.58	1094.20
639.93	1079.69
640.27	1075.71
640.61	1068.45
640.96	1070.09
641.30	1072.20
641.65	1082.73
641.99	1071.26
642.33	1072.20
642.68	1074.77
643.02	1071.03
643.37	1068.92
643.71	1086.94
644.05	1086.01
644.40	1079.46
644.74	1085.07
645.08	1094.20
645.43	1082.03
645.77	1084.14
646.11	1080.63
646.46	1078.75
646.80	1077.11
647.14	1079.69
647.49	1077.82
647.83	1078.05
648.17	1090.22
648.52	1084.84
648.86	1089.29
649.20	1093.50
649.55	1095.14
649.89	1086.01
650.23	1089.75
650.57	1079.22
650.92	1076.41
651.26	1079.92
651.60	1078.28
651.95	1071.73
652.29	1082.97
652.63	1080.63
652.97	1072.67
653.32	1078.05
653.66	1082.50
654.00	1080.86
654.34	1091.16
654.69	1095.14
655.03	1085.77
655.37	1087.41
655.71	1079.46
656.05	1081.56
656.40	1087.65
656.74	1086.24
657.08	1080.86
657.42	1080.63
657.76	1077.11
658.11	1084.60
658.45	1098.18
658.79	1102.16
659.13	1103.80
659.47	1101.69
659.82	1081.80
660.16	1068.45
660.50	1067.75
660.84	1067.99
661.18	1057.22
661.52	1070.33
661.87	1082.26
662.21	1077.82
662.55	1074.77
662.89	1078.05
663.23	1072.90
663.57	1061.90
663.91	1068.45
664.25	1074.54
664.60	1079.69
664.94	1073.37
665.28	1069.86
665.62	1072.67
665.96	1078.52
666.30	1082.26
666.64	1095.14
666.98	1101.22
667.32	1096.07
667.66	1090.69
668.01	1080.63
668.35	1086.24
668.69	1091.86
669.03	1090.69
669.37	1094.90
669.71	1104.03
670.05	1094.43
670.39	1088.82
670.73	1079.22
671.07	1078.75
671.41	1072.67
671.75	1067.52
672.09	1066.82
672.43	1075.71
672.77	1071.97
673.11	1066.82
673.45	1068.45
673.79	1079.92
674.13	1092.56
674.47	1097.24
674.81	1100.52
675.15	1109.41
675.49	1101.22
675.83	1088.12
676.17	1079.46
676.51	1082.97
676.85	1081.56
677.19	1081.56
677.53	1077.82
677.87	1075.94
678.21	1072.43
678.55	1057.22
678.89	1062.14
679.23	1073.37
679.57	1076.41
679.90	1077.58
680.24	1086.71
680.58	1089.52
680.92	1079.92
681.26	1089.52
681.60	1087.65
681.94	1083.67
682.28	1076.18
682.62	1077.58
682.96	1078.28
683.29	1094.90
683.63	1100.99
683.97	1098.65
684.31	1109.41
684.65	1108.71
684.99	1095.84
685.33	1097.24
685.67	1107.07
686.00	1090.69
686.34	1075.48
686.68	1071.73
687.02	1074.07
687.36	1070.33
687.70	1082.26
688.03	1101.69
688.37	1103.33
688.71	1102.63
689.05	1105.90
689.39	1105.44
689.72	1103.09
690.06	1107.07
690.40	1097.48
690.74	1083.20
691.08	1077.35
691.41	1058.39
691.75	1060.96
692.09	1063.54
692.43	1064.01
692.76	1066.35
693.10	1071.73
693.44	1069.16
693.78	1071.50
694.11	1080.16
694.45	1076.65
694.79	1069.16
695.13	1078.52
695.46	1083.67
695.80	1078.05
696.14	1078.28
696.48	1090.92
696.81	1086.01
697.15	1089.52
697.49	1090.92
697.82	1095.14
698.16	1093.97
698.50	1086.48
698.83	1077.35
699.17	1078.05
699.51	1074.77
699.84	1075.01
700.18	1082.03
700.52	1085.77
700.85	1094.90
701.19	1084.84
701.53	1084.14
701.86	1075.94
702.20	1066.82
702.54	1061.90
702.87	1068.69
703.21	1071.03
703.55	1079.22
703.88	1085.31
704.22	1087.88
704.55	1098.18
704.89	1100.75
705.23	1096.31
705.56	1092.33
705.90	1088.35
706.23	1092.80
706.57	1084.84
706.91	1081.56
707.24	1086.71
707.58	1085.77
707.91	1077.11
708.25	1079.69
708.58	1088.12
708.92	1082.97
709.26	1071.50
709.59	1074.77
709.93	1081.33
710.26	1078.05
710.60	1089.29
710.93	1097.71
711.27	1094.43
711.60	1092.80
711.94	1087.88
712.27	1079.92
712.61	1071.03
712.94	1063.54
713.28	1063.31
713.61	1067.52
713.95	1058.62
714.28	1067.99
714.62	1067.75
714.95	1066.58
715.29	1064.01
715.62	1075.24
715.96	1072.20
716.29	1075.24
716.63	1068.22
716.96	1070.80
717.29	1078.52
717.63	1082.50
717.96	1083.67
718.30	1085.77
718.63	1084.84
718.97	1076.18
719.30	1072.67
719.63	1076.65
719.97	1087.18
720.30	1093.73
720.64	1099.58
720.97	1104.50
721.30	1098.88
721.64	1090.22
721.97	1081.80
722.31	1076.88
722.64	1076.88
722.97	1078.99
723.31	1071.03
723.64	1066.58
723.97	1061.20
724.31	1063.54
724.64	1064.24
724.98	1078.99
725.31	1084.60
725.64	1094.20
725.98	1088.82
726.31	1091.39
726.64	1083.67
726.97	1087.88
727.31	1086.24
727.64	1087.41
727.97	1085.54
728.31	1088.82
728.64	1071.26
728.97	1071.26
729.31	1078.28
729.64	1076.65
729.97	1073.60
730.30	1093.73
730.64	1091.86
730.97	1088.12
731.30	1095.37
731.63	1093.97
731.97	1080.16
732.30	1071.73
732.63	1067.99
732.96	1075.24
733.30	1079.46
733.63	1088.58
733.96	1091.16
734.29	1091.86
734.63	1077.58
734.96	1080.16
735.29	1074.77
735.62	1077.82
735.95	1083.67
736.29	1086.48
736.62	1082.73
736.95	1092.09
737.28	1093.03
737.61	1090.92
737.94	1090.46
738.28	1090.22
738.61	1073.14
738.94	1060.26
739.27	1060.96
739.60	1061.20
739.93	1060.73
740.27	1082.50
740.60	1089.99
740.93	1091.39
741.26	1096.78
741.59	1095.37
741.92	1086.01
742.25	1092.09
742.58	1090.22
742.91	1094.67
743.25	1095.14
743.58	1097.48
743.91	1094.20
744.24	1095.60
744.57	1084.60
744.90	1079.22
745.23	1079.22
745.56	1082.03
745.89	1068.45
746.22	1073.60
746.55	1088.58
746.88	1086.94
747.21	1084.37
747.54	1090.92
747.87	1082.03
748.20	1074.07
748.53	1068.92
748.87	1065.18
749.20	1064.71
749.53	1070.33
749.86	1077.82
750.19	1085.54
750.52	1090.69
750.85	1098.88
751.18	1090.46
751.51	1087.18
751.84	1078.28
752.16	1083.67
752.49	1075.94
752.82	1086.71
753.15	1068.92
753.48	1073.37
753.81	1063.31
754.14	1068.45
754.47	1060.73
754.80	1072.67
755.13	1070.33
755.46	1073.37
755.79	1060.50
756.12	1065.18
756.45	1068.92
756.78	1064.94
757.11	1067.05
757.43	1082.26
757.76	1084.14
758.09	1083.20
758.42	1097.01
758.75	1100.75
759.08	1094.20
759.41	1094.20
759.74	1094.67
760.07	1091.39
760.39	1086.48
760.72	1090.92
761.05	1081.80
761.38	1079.92
761.71	1079.92
762.04	1077.82
762.36	1075.94
762.69	1093.03
763.02	1100.29
763.35	1092.80
763.68	1089.75
764.01	1091.86
764.33	1084.60
764.66	1075.94
764.99	1074.31
765.32	1089.05
765.65	1086.48
765.97	1086.71
766.30	1084.37
766.63	1086.01
766.96	1090.46
767.28	1083.90
767.61	1081.80
767.94	1088.12
768.27	1084.84
768.59	1069.16
768.92	1074.31
769.25	1071.03
769.58	1069.86
769.90	1086.94
770.23	1083.90
770.56	1086.94
770.89	1095.14
771.21	1093.03
771.54	1088.58
771.87	1099.12
772.19	1106.84
772.52	1096.31
772.85	1098.88
773.17	1100.99
773.50	1096.78
773.83	1088.82
774.15	1086.01
774.48	1085.54
774.81	1073.60
775.13	1071.03
775.46	1073.37
775.79	1079.46
776.11	1085.31
776.44	1090.46
776.77	1096.54
777.09	1091.86
777.42	1093.03
777.74	1083.43
778.07	1078.75
778.40	1075.94
778.72	1082.73
779.05	1084.84
779.37	1095.84
779.70	1092.33
780.03	1104.26
780.35	1096.07
780.68	1099.35
781.00	1096.31
781.33	1100.05
781.65	1082.50
781.98	1087.41
782.31	1078.99
782.63	1071.97
782.96	1077.82
783.28	1079.92
783.61	1074.07
783.93	1077.11
784.26	1070.56
784.58	1068.22
784.91	1059.33
785.23	1065.18
785.56	1063.07
785.88	1067.28
786.21	1071.73
786.53	1088.58
786.86	1083.90
787.18	1086.71
787.51	1092.09
787.83	1093.50
788.16	1092.56
788.48	1100.52
788.81	1104.73
789.13	1098.41
789.46	1096.78
789.78	1098.65
790.10	1090.46
790.43	1091.63
790.75	1095.14
791.08	1093.26
791.40	1104.03
791.73	1117.14
792.05	1109.65
792.37	1111.52
792.70	1110.35
793.02	1089.99
793.35	1078.05
793.67	1075.94
793.99	1073.14
794.32	1073.84
794.64	1083.67
794.96	1086.48
795.29	1090.46
795.61	1092.56
795.93	1082.03
796.26	1075.24
796.58	1073.37
796.91	1078.05
797.23	1078.75
797.55	1078.05
797.87	1076.65
798.20	1085.31
798.52	1080.86
798.84	1086.01
799.17	1099.82
799.49	1098.65
799.81	1086.94
800.14	1084.37
800.46	1086.94
800.78	1075.01
801.10	1072.43
801.43	1074.54
801.75	1073.60
802.07	1061.20
802.40	1059.33
802.72	1065.18
803.04	1065.88
803.36	1061.90
803.69	1065.88
804.01	1069.16
804.33	1062.14
804.65	1056.52
804.97	1061.90
805.30	1068.22
805.62	1071.73
805.94	1082.26
806.26	1087.18
806.58	1081.33
806.91	1077.82
807.23	1080.63
807.55	1069.62
807.87	1066.35
808.19	1075.01
808.52	1074.77
808.84	1090.69
809.16	1093.03
809.48	1093.73
809.80	1094.20
810.12	1093.03
810.44	1077.11
810.77	1077.35
811.09	1067.05
811.41	1067.52
811.73	1059.33
812.05	1053.94
812.37	1058.62
812.69	1079.69
813.01	1079.69
813.33	1084.60
813.66	1087.65
813.98	1083.20
814.30	1077.82
814.62	1075.94
814.94	1083.20
815.26	1086.24
815.58	1092.33
815.90	1083.90
816.22	1095.60
816.54	1094.20
816.86	1094.43
817.18	1091.16
817.50	1099.58
817.82	1088.82
818.14	1082.97
818.46	1075.24
818.78	1080.86
819.10	1075.24
819.42	1077.58
819.74	1083.90
820.06	1088.35
820.38	1086.71
820.70	1080.63
821.02	1078.99
821.34	1078.28
821.66	1078.05
821.98	1071.26
822.30	1078.05
822.62	1070.80
822.94	1070.33
823.26	1072.90
823.58	1064.48
823.90	1062.60
824.22	1072.67
824.54	1067.99
824.86	1060.03
825.18	1071.50
825.50	1075.48
825.81	1068.92
826.13	1069.16
826.45	1074.77
826.77	1079.22
827.09	1084.14
827.41	1088.35
827.73	1083.43
828.05	1081.09
828.36	1076.65
828.68	1077.11
829.00	1074.77
829.32	1080.86
829.64	1082.73
829.96	1082.26
830.28	1076.41
830.59	1071.50
830.91	1065.65
831.23	1072.90
831.55	1076.18
831.87	1076.65
832.19	1084.84
832.50	1094.67
832.82	1095.84
833.14	1085.07
833.46	1084.60
833.78	1080.16
834.09	1069.62
834.41	1064.48
834.73	1065.65
835.05	1070.56
835.36	1069.39
835.68	1082.97
836.00	1077.58
836.32	1076.65
836.63	1076.41
836.95	1082.97
837.27	1074.07
837.59	1080.63
837.90	1083.43
838.22	1080.16
838.54	1078.05
838.85	1077.58
839.17	1076.65
839.49	1083.43
839.80	1079.69
840.12	1076.65
840.44	1081.09
840.76	1085.07
841.07	1079.46
841.39	1084.84
841.71	1086.94
842.02	1088.82
842.34	1084.37
842.65	1089.29
842.97	1089.75
843.29	1080.16
843.60	1071.97
843.92	1076.88
844.24	1078.05
844.55	1084.37
844.87	1084.14
845.18	1086.01
845.50	1077.11
845.82	1074.07
846.13	1067.75
846.45	1066.11
846.76	1074.07
847.08	1078.99
847.40	1079.69
847.71	1076.88
848.03	1089.29
848.34	1078.28
848.66	1074.54
848.97	1071.03
849.29	1072.43
849.60	1074.07
849.92	1086.71
850.24	1088.58
850.55	1083.67
850.87	1078.75
851.18	1079.46
851.50	1073.60
851.81	1071.50
852.13	1073.84
852.44	1076.18
852.76	1065.41
853.07	1063.77
853.39	1067.28
853.70	1074.07
854.01	1072.43
854.33	1076.65
854.64	1071.97
854.96	1074.77
855.27	1076.88
855.59	1081.80
855.90	1082.03
856.22	1084.84
856.53	1084.60
856.84	1080.86
857.16	1078.52
857.47	1083.67
857.79	1081.33
858.10	1073.60
858.41	1085.07
858.73	1086.71
859.04	1087.88
859.36	1096.78
859.67	1105.20
859.98	1091.86
860.30	1098.18
860.61	1085.31
860.92	1085.77
861.24	1081.33
861.55	1078.52
861.87	1071.73
862.18	1086.01
862.49	1083.90
862.81	1093.26
863.12	1092.80
863.43	1080.86
863.74	1078.99
864.06	1076.18
864.37	1060.73
864.68	1061.20
865.00	1077.58
865.31	1071.26
865.62	1072.67
865.94	1072.43
866.25	1082.97
866.56	1077.82
866.87	1082.26
867.19	1079.46
867.50	1079.46
867.81	1078.52
868.12	1082.03
868.44	1078.28
868.75	1082.03
869.06	1081.09
869.37	1080.86
869.68	1072.90
870.00	1071.73
870.31	1079.92
870.62	1089.05
870.93	1087.65
871.24	1094.43
871.56	1102.86
871.87	1095.37
872.18	1095.60
872.49	1090.22
872.80	1082.73
873.12	1071.50
873.43	1060.96
873.74	1052.30
874.05	1055.11
874.36	1059.56
874.67	1075.94
874.98	1089.29
875.29	1097.95
875.61	1094.20
875.92	1093.73
876.23	1085.77
876.54	1083.20
876.85	1075.94
877.16	1072.43
877.47	1079.46
877.78	1079.22
878.09	1080.86
878.40	1084.84
878.72	1092.80
879.03	1084.37
879.34	1081.09
879.65	1076.41
879.96	1068.69
880.27	1079.92
880.58	1073.84
880.89	1072.43
881.20	1068.69
881.51	1080.39
881.82	1071.50
882.13	1082.50
882.44	1093.26
882.75	1098.65
883.06	1091.86
883.37	1086.94
883.68	1086.24
883.99	1079.69
884.30	1075.71
884.61	1089.05
884.92	1098.65
885.23	1092.80
885.54	1096.07
885.85	1098.18
886.16	1089.05
886.47	1092.09
886.78	1096.07
887.08	1084.14
887.39	1081.33
887.70	1073.14
888.01	1061.90
888.32	1060.03
888.63	1054.65
888.94	1051.84
889.25	1054.88
889.56	1059.33
889.87	1067.52
890.17	1074.07
890.48	1073.14
890.79	1074.77
891.10	1071.73
891.41	1055.58
891.72	1061.90
892.03	1065.41
892.34	1062.60
892.64	1057.45
892.95	1055.35
893.26	1052.54
893.57	1060.50
893.88	1067.05
894.18	1065.88
894.49	1084.84
894.80	1077.58
895.11	1072.90
895.42	1064.48
895.72	1065.18
896.03	1061.67
896.34	1073.60
896.65	1075.01
896.96	1081.33
897.26	1092.80
897.57	1083.43
897.88	1074.54
898.19	1073.37
898.49	1064.24
898.80	1063.54
899.11	1068.45
899.41	1065.88
899.72	1063.31
900.03	1079.92
900.34	1083.20
900.64	1088.12
900.95	1099.35
901.26	1096.78
901.56	1096.78
901.87	1084.84
902.18	1081.09
902.48	1077.82
902.79	1089.99
903.10	1085.54
903.40	1099.58
903.71	1100.52
904.02	1102.39
904.32	1108.48
904.63	1105.44
904.94	1099.58
905.24	1096.07
905.55	1083.67
905.85	1069.39
906.16	1065.41
906.47	1058.39
906.77	1066.82
907.08	1082.50
907.38	1084.14
907.69	1090.92
908.00	1095.84
908.30	1090.46
908.61	1089.52
908.91	1084.14
909.22	1088.58
909.52	1089.29
909.83	1084.14
910.14	1077.82
910.44	1084.14
910.75	1072.20
911.05	1064.48
911.36	1072.43
911.66	1080.86
911.97	1073.14
912.27	1078.28
912.58	1080.63
912.88	1079.69
913.19	1075.48
913.49	1084.60
913.80	1081.33
914.10	1078.52
914.41	1070.33
914.71	1076.18
915.01	1079.46
915.32	1081.56
915.62	1086.71
915.93	1097.24
916.23	1079.46
916.54	1072.90
916.84	1082.26
917.15	1087.41
917.45	1080.63
917.75	1090.69
918.06	1091.86
918.36	1093.03
918.67	1097.71
918.97	1105.44
919.27	1103.80
919.58	1106.84
919.88	1095.60
920.18	1088.12
920.49	1078.28
920.79	1083.20
921.10	1076.41
921.40	1075.48
921.70	1071.73
922.01	1079.92
922.31	1081.56
922.61	1076.88
922.92	1075.24
923.22	1073.14
923.52	1072.20
923.82	1066.35
924.13	1063.54
924.43	1072.20
924.73	1075.94
925.04	1077.58
925.34	1085.77
925.64	1091.63
925.94	1090.22
926.25	1089.05
926.55	1085.54
926.85	1082.50
927.15	1080.63
927.46	1078.05
927.76	1087.18
928.06	1086.24
928.36	1094.20
928.67	1093.97
928.97	1097.48
929.27	1093.50
929.57	1084.37
929.87	1071.50
930.18	1072.20
930.48	1065.18
930.78	1069.62
931.08	1085.31
931.38	1081.56
931.69	1082.97
931.99	1089.99
932.29	1078.99
932.59	1069.62
932.89	1079.46
933.19	1073.60
933.49	1067.05
933.80	1068.45
934.10	1075.71
934.40	1063.31
934.70	1071.26
935.00	1077.35
935.30	1080.16
935.60	1076.41
935.90	1088.58
936.20	1074.54
936.50	1067.52
936.81	1068.45
937.11	1075.48
937.41	1069.16
937.71	1093.97
938.01	1093.03
938.31	1082.03
938.61	1069.39
938.91	1067.05
939.21	1058.16
939.51	1063.31
939.81	1067.05
940.11	1070.09
940.41	1072.67
940.71	1074.77
941.01	1072.67
941.31	1071.50
941.61	1076.88
941.91	1075.01
942.21	1071.73
942.51	1072.67
942.81	1078.52
943.11	1078.28
943.41	1086.48
943.71	1088.82
944.01	1087.41
944.31	1080.86
944.61	1084.60
944.90	1084.37
945.20	1075.94
945.50	1085.31
945.80	1086.71
946.10	1081.56
946.40	1080.63
946.70	1084.37
947.00	1077.11
947.30	1086.71
947.60	1090.22
947.89	1086.71
948.19	1088.58
948.49	1088.12
948.79	1081.80
949.09	1074.77
949.39	1075.01
949.69	1075.94
949.98	1073.84
950.28	1071.50
950.58	1074.77
950.88	1072.67
951.18	1075.01
951.48	1083.43
951.77	1075.48
952.07	1070.33
952.37	1080.63
952.67	1080.39
952.97	1089.75
953.26	1107.07
953.56	1107.78
953.86	1100.29
954.16	1097.24
954.45	1080.63
954.75	1075.24
955.05	1074.54
955.35	1074.77
955.64	1071.26
955.94	1071.26
956.24	1075.71
956.54	1080.86
956.83	1078.28
957.13	1077.82
957.43	1079.22
957.72	1075.48
958.02	1076.41
958.32	1079.46
958.61	1086.24
958.91	1089.52
959.21	1089.29
959.50	1078.75
959.80	1076.41
960.10	1073.84
960.39	1065.18
960.69	1060.26
960.99	1060.73
961.28	1058.16
961.58	1058.62
961.87	1064.01
962.17	1067.05
962.47	1071.03
962.76	1077.11
963.06	1074.54
963.36	1069.62
963.65	1075.48
963.95	1090.92
964.24	1087.88
964.54	1088.35
964.83	1088.58
965.13	1090.46
965.42	1074.54
965.72	1074.31
966.02	1078.28
966.31	1078.75
966.61	1064.48
966.90	1075.01
967.20	1073.37
967.49	1073.60
967.79	1076.41
968.08	1090.69
968.38	1088.58
968.67	1088.12
968.97	1077.82
969.26	1078.05
969.56	1068.69
969.85	1060.96
970.15	1066.35
970.44	1080.63
970.74	1072.90
971.03	1074.07
971.32	1072.90
971.62	1074.77
971.91	1063.07
972.21	1075.48
972.50	1073.60
972.80	1077.82
973.09	1076.41
973.38	1078.52
973.68	1070.80
973.97	1072.67
974.27	1073.14
974.56	1071.03
974.85	1076.88
975.15	1080.16
975.44	1074.07
975.73	1083.90
976.03	1082.73
976.32	1086.71
976.61	1092.80
976.91	1105.67
977.20	1099.12
977.49	1098.18
977.79	1091.63
978.08	1092.33
978.37	1089.52
978.67	1085.31
978.96	1089.75
979.25	1088.35
979.55	1075.48
979.84	1076.65
980.13	1077.35
980.42	1080.39
980.72	1076.18
981.01	1085.54
981.30	1080.86
981.59	1085.77
981.89	1068.22
982.18	1074.77
982.47	1072.67
982.76	1070.09
983.06	1068.45
983.35	1077.11
983.64	1082.26
983.93	1086.94
984.22	1087.41
984.52	1082.03
984.81	1074.77
985.10	1060.26
985.39	1060.96
985.68	1071.26
985.97	1079.69
986.27	1089.52
986.56	1101.22
986.85	1093.97
987.14	1088.82
987.43	1086.48
987.72	1089.29
988.01	1087.65
988.31	1087.41
988.60	1087.18
988.89	1078.99
989.18	1076.88
989.47	1075.01
989.76	1080.39
990.05	1076.88
990.34	1079.69
990.63	1091.63
990.92	1098.88
991.21	1087.41
991.51	1086.48
991.80	1090.46
992.09	1085.77
992.38	1077.35
992.67	1090.46
992.96	1094.43
993.25	1089.75
993.54	1082.50
993.83	1088.82
994.12	1080.16
994.41	1081.09
994.70	1091.63
994.99	1084.37
995.28	1078.52
995.57	1077.58
995.86	1078.99
996.15	1068.22
996.44	1085.54
996.73	1082.73
997.02	1091.63
997.31	1082.26
997.59	1082.50
997.88	1069.86
998.17	1075.01
998.46	1070.09
998.75	1076.88
999.04	1087.18
999.33	1092.56
999.62	1084.14
999.91	1084.60
1000.20	1086.01
1000.49	1074.77
1000.77	1081.09
1001.06	1086.48
1001.35	1075.71
1001.64	1081.33
1001.93	1080.16
1002.22	1074.31
1002.51	1082.26
1002.79	1087.41
1003.08	1083.20
1003.37	1083.20
1003.66	1077.35
1003.95	1072.20
1004.23	1078.52
1004.52	1077.11
1004.81	1089.52
1005.10	1101.69
1005.39	1104.03
1005.67	1104.26
1005.96	1098.41
1006.25	1092.80
1006.54	1071.97
1006.83	1064.94
1007.11	1057.22
1007.40	1059.56
1007.69	1050.90
1007.97	1057.22
1008.26	1062.84
1008.55	1071.97
1008.84	1077.35
1009.12	1083.43
1009.41	1090.69
1009.70	1086.24
1009.98	1078.28
1010.27	1075.01
1010.56	1072.90
1010.85	1069.39
1011.13	1070.33
1011.42	1075.24
1011.71	1075.48
1011.99	1071.97
1012.28	1068.45
1012.56	1076.41
1012.85	1072.43
1013.14	1068.92
1013.42	1081.80
1013.71	1082.73
1014.00	1075.48
1014.28	1086.01
1014.57	1088.82
1014.85	1081.56
1015.14	1084.60
1015.43	1072.90
1015.71	1072.67
1016.00	1065.41
1016.28	1065.65
1016.57	1071.03
1016.85	1083.20
1017.14	1077.58
1017.43	1082.73
1017.71	1085.54
1018.00	1089.52
1018.28	1092.56
1018.57	1091.16
1018.85	1096.31
1019.14	1090.22
1019.42	1075.94
1019.71	1069.86
1019.99	1072.20
1020.28	1068.92
1020.56	1068.22
1020.85	1067.52
1021.13	1073.60
1021.42	1074.07
1021.70	1069.16
1021.99	1067.52
1022.27	1066.58
1022.55	1053.24
1022.84	1049.73
>>>>>End Processed Spectral Data<<<<<
