SpectraSuite Data File
++++++++++++++++++++++++++++++++++++
Date: Mon Aug 26 10:25:48 PDT 2019
User: corrico
Dark Spectrum Present: No
Reference Spectrum Present: No
Number of Sampled Component Spectra: 1
Spectrometers: USB2+H06089
Integration Time (usec): 10000 (USB2+H06089)
Spectra Averaged: 2 (USB2+H06089)
Boxcar Smoothing: 2 (USB2+H06089)
Correct for Electrical Dark: No (USB2+H06089)
Strobe/Lamp Enabled: No (USB2+H06089)
Correct for Detector Non-linearity: No (USB2+H06089)
Correct for Stray Light: No (USB2+H06089)
Number of Pixels in Processed Spectrum: 2048
>>>>>Begin Processed Spectral Data<<<<<
339.70	1090.69
340.07	1090.69
340.45	1028.20
340.82	984.90
341.19	943.47
341.57	903.45
341.94	886.59
342.31	884.96
342.69	895.96
343.06	892.91
343.43	892.21
343.81	896.66
344.18	893.15
344.55	887.77
344.93	893.62
345.30	891.28
345.67	894.08
346.04	913.51
346.42	925.21
346.79	939.73
347.16	963.83
347.54	973.19
347.91	975.30
348.28	990.98
348.65	992.15
349.03	992.62
349.40	1009.00
349.77	1021.88
350.14	1015.32
350.52	1026.79
350.89	1028.67
351.26	1035.92
351.63	1040.13
352.01	1055.82
352.38	1061.90
352.75	1078.28
353.12	1071.97
353.50	1067.99
353.87	1056.28
354.24	1057.92
354.61	1060.73
354.98	1066.82
355.36	1074.31
355.73	1075.48
356.10	1075.48
356.47	1071.03
356.84	1068.45
357.22	1057.69
357.59	1059.56
357.96	1060.03
358.33	1060.73
358.70	1059.56
359.08	1064.94
359.45	1071.26
359.82	1070.80
360.19	1061.20
360.56	1061.67
360.94	1065.65
361.31	1071.03
361.68	1066.58
362.05	1082.26
362.42	1087.65
362.79	1080.39
363.16	1071.26
363.54	1079.69
363.91	1075.24
364.28	1060.73
364.65	1067.99
365.02	1070.56
365.39	1065.88
365.76	1062.37
366.14	1076.18
366.51	1072.43
366.88	1067.28
367.25	1064.24
367.62	1065.18
367.99	1061.90
368.36	1062.37
368.73	1063.07
369.10	1058.16
369.48	1058.62
369.85	1060.73
370.22	1068.69
370.59	1071.26
370.96	1075.48
371.33	1067.52
371.70	1066.35
372.07	1056.52
372.44	1063.77
372.81	1064.94
373.18	1077.11
373.55	1077.11
373.93	1084.84
374.30	1073.14
374.67	1085.77
375.04	1085.07
375.41	1086.71
375.78	1083.67
376.15	1094.67
376.52	1097.48
376.89	1087.18
377.26	1089.29
377.63	1087.18
378.00	1081.09
378.37	1061.20
378.74	1069.62
379.11	1065.41
379.48	1060.50
379.85	1060.73
380.22	1076.41
380.59	1074.31
380.96	1064.48
381.33	1062.60
381.70	1078.05
382.07	1081.33
382.44	1075.24
382.81	1081.09
383.18	1083.20
383.55	1067.75
383.92	1065.65
384.29	1062.60
384.66	1063.77
385.03	1068.69
385.40	1066.11
385.77	1062.14
386.14	1070.56
386.51	1074.54
386.88	1079.69
387.25	1085.77
387.62	1086.01
387.99	1087.18
388.36	1071.26
388.73	1066.82
389.10	1064.94
389.46	1062.60
389.83	1054.41
390.20	1076.41
390.57	1080.16
390.94	1081.33
391.31	1078.99
391.68	1077.58
392.05	1075.94
392.42	1079.46
392.79	1085.54
393.16	1080.86
393.53	1089.05
393.89	1086.71
394.26	1082.26
394.63	1079.92
395.00	1090.46
395.37	1089.75
395.74	1087.18
396.11	1087.88
396.48	1083.20
396.84	1079.46
397.21	1079.46
397.58	1080.86
397.95	1076.18
398.32	1077.11
398.69	1086.71
399.06	1090.69
399.42	1086.48
399.79	1097.71
400.16	1095.84
400.53	1085.54
400.90	1084.60
401.27	1088.12
401.64	1082.73
402.00	1082.50
402.37	1076.41
402.74	1087.65
403.11	1084.14
403.48	1068.92
403.84	1071.50
404.21	1070.56
404.58	1054.18
404.95	1058.16
405.32	1075.71
405.68	1077.82
406.05	1091.16
406.42	1101.69
406.79	1103.56
407.16	1095.84
407.52	1102.39
407.89	1088.35
408.26	1073.84
408.63	1071.97
408.99	1080.63
409.36	1072.20
409.73	1082.73
410.10	1088.82
410.47	1089.52
410.83	1077.58
411.20	1075.94
411.57	1069.86
411.94	1086.01
412.30	1094.43
412.67	1104.03
413.04	1097.71
413.40	1092.33
413.77	1071.03
414.14	1061.90
414.51	1061.43
414.87	1072.67
415.24	1082.03
415.61	1090.46
415.97	1089.52
416.34	1081.80
416.71	1085.07
417.08	1080.86
417.44	1069.86
417.81	1064.48
418.18	1068.92
418.54	1052.77
418.91	1047.39
419.28	1059.33
419.64	1063.07
420.01	1062.14
420.38	1072.90
420.74	1085.77
421.11	1087.18
421.48	1087.18
421.84	1088.58
422.21	1093.50
422.58	1084.60
422.94	1078.99
423.31	1081.33
423.68	1086.01
424.04	1083.20
424.41	1086.24
424.77	1092.80
425.14	1099.12
425.51	1097.48
425.87	1087.18
426.24	1082.50
426.61	1084.60
426.97	1074.07
427.34	1073.14
427.70	1076.18
428.07	1083.20
428.44	1067.52
428.80	1077.35
429.17	1075.48
429.53	1082.03
429.90	1085.07
430.27	1102.39
430.63	1098.65
431.00	1093.03
431.36	1083.43
431.73	1080.63
432.09	1071.73
432.46	1074.31
432.83	1071.03
433.19	1080.63
433.56	1083.67
433.92	1078.75
434.29	1072.20
434.65	1075.01
435.02	1066.58
435.38	1052.30
435.75	1048.09
436.11	1049.73
436.48	1058.16
436.84	1059.56
437.21	1073.60
437.57	1075.24
437.94	1074.54
438.30	1068.22
438.67	1079.22
439.03	1082.03
439.40	1089.99
439.76	1082.50
440.13	1075.71
440.49	1065.88
440.86	1055.58
441.22	1060.03
441.59	1062.60
441.95	1077.35
442.32	1073.37
442.68	1078.99
443.05	1071.50
443.41	1076.41
443.78	1063.77
444.14	1079.46
444.51	1070.33
444.87	1066.82
445.24	1064.01
445.60	1071.50
445.96	1058.86
446.33	1066.82
446.69	1068.45
447.06	1067.52
447.42	1061.90
447.79	1066.58
448.15	1066.82
448.51	1070.56
448.88	1074.31
449.24	1081.33
449.61	1074.54
449.97	1077.11
450.33	1078.99
450.70	1090.92
451.06	1083.90
451.43	1096.78
451.79	1093.50
452.15	1082.97
452.52	1061.67
452.88	1062.60
453.24	1049.96
453.61	1046.22
453.97	1051.84
454.34	1057.22
454.70	1061.90
455.06	1067.75
455.43	1073.60
455.79	1075.94
456.15	1080.39
456.52	1070.33
456.88	1075.01
457.24	1071.97
457.61	1075.01
457.97	1076.88
458.33	1078.05
458.70	1074.31
459.06	1080.16
459.42	1080.86
459.79	1081.09
460.15	1092.56
460.51	1088.12
460.88	1086.24
461.24	1094.90
461.60	1094.43
461.96	1090.69
462.33	1098.65
462.69	1094.67
463.05	1083.67
463.42	1077.11
463.78	1069.86
464.14	1067.99
464.50	1063.54
464.87	1050.67
465.23	1056.75
465.59	1066.58
465.95	1072.67
466.32	1085.77
466.68	1092.09
467.04	1095.14
467.40	1092.56
467.77	1081.80
468.13	1078.28
468.49	1097.95
468.85	1102.39
469.22	1110.58
469.58	1106.37
469.94	1105.20
470.30	1100.29
470.66	1095.84
471.03	1089.29
471.39	1103.80
471.75	1105.90
472.11	1108.01
472.47	1102.86
472.84	1105.67
473.20	1091.16
473.56	1090.22
473.92	1073.60
474.28	1069.39
474.65	1055.82
475.01	1064.71
475.37	1058.16
475.73	1067.75
476.09	1079.92
476.45	1084.37
476.81	1075.94
477.18	1070.09
477.54	1064.71
477.90	1064.48
478.26	1068.69
478.62	1078.28
478.98	1082.73
479.34	1073.60
479.71	1063.31
480.07	1075.48
480.43	1076.65
480.79	1079.46
481.15	1094.20
481.51	1098.88
481.87	1078.75
482.23	1075.48
482.59	1067.05
482.96	1065.65
483.32	1065.88
483.68	1096.07
484.04	1098.65
484.40	1106.14
484.76	1110.12
485.12	1110.82
485.48	1094.67
485.84	1082.73
486.20	1084.60
486.56	1086.24
486.92	1083.43
487.28	1078.52
487.64	1081.33
488.00	1079.22
488.37	1066.82
488.73	1072.20
489.09	1066.58
489.45	1070.56
489.81	1064.48
490.17	1068.22
490.53	1060.03
490.89	1058.39
491.25	1055.11
491.61	1066.35
491.97	1060.96
492.33	1060.96
492.69	1076.18
493.05	1076.65
493.41	1084.60
493.77	1089.52
494.13	1099.35
494.49	1096.54
494.85	1104.50
495.21	1094.43
495.57	1107.78
495.93	1105.67
496.29	1097.48
496.64	1084.14
497.00	1077.58
497.36	1063.07
497.72	1059.56
498.08	1071.26
498.44	1076.41
498.80	1081.56
499.16	1086.01
499.52	1084.37
499.88	1077.35
500.24	1086.48
500.60	1080.16
500.96	1079.92
501.32	1080.39
501.68	1081.09
502.03	1079.22
502.39	1082.03
502.75	1083.67
503.11	1086.24
503.47	1078.75
503.83	1070.33
504.19	1075.24
504.55	1070.33
504.91	1066.58
505.26	1065.18
505.62	1070.33
505.98	1069.39
506.34	1071.03
506.70	1077.35
507.06	1083.20
507.42	1087.65
507.78	1085.77
508.13	1082.73
508.49	1081.33
508.85	1086.01
509.21	1092.09
509.57	1104.03
509.93	1113.16
510.28	1116.20
510.64	1105.90
511.00	1091.63
511.36	1076.88
511.72	1079.69
512.07	1068.69
512.43	1079.92
512.79	1085.07
513.15	1086.71
513.51	1070.56
513.86	1076.88
514.22	1069.16
514.58	1074.07
514.94	1074.07
515.30	1088.35
515.65	1082.26
516.01	1083.90
516.37	1073.84
516.73	1074.31
517.08	1064.48
517.44	1070.56
517.80	1070.33
518.16	1075.24
518.51	1078.75
518.87	1074.54
519.23	1072.90
519.59	1081.33
519.94	1085.54
520.30	1082.73
520.66	1088.82
521.01	1090.22
521.37	1080.63
521.73	1065.18
522.09	1069.16
522.44	1071.50
522.80	1078.28
523.16	1078.05
523.51	1086.01
523.87	1077.82
524.23	1078.99
524.58	1074.77
524.94	1079.69
525.30	1074.07
525.65	1080.63
526.01	1086.01
526.37	1086.24
526.72	1083.43
527.08	1090.46
527.44	1093.50
527.79	1089.99
528.15	1085.54
528.51	1086.48
528.86	1085.77
529.22	1087.88
529.58	1080.16
529.93	1090.46
530.29	1091.63
530.65	1091.39
531.00	1084.37
531.36	1090.92
531.71	1089.05
532.07	1083.67
532.43	1081.33
532.78	1076.65
533.14	1085.07
533.49	1078.28
533.85	1088.12
534.21	1091.63
534.56	1097.48
534.92	1085.77
535.27	1091.39
535.63	1091.63
535.98	1106.37
536.34	1104.50
536.69	1103.33
537.05	1090.22
537.41	1084.84
537.76	1083.20
538.12	1089.99
538.47	1093.26
538.83	1100.99
539.18	1098.88
539.54	1081.09
539.89	1072.43
540.25	1070.56
540.60	1072.67
540.96	1069.16
541.31	1082.97
541.67	1093.26
542.02	1101.69
542.38	1088.35
542.73	1097.24
543.09	1086.01
543.44	1080.16
543.80	1075.01
544.15	1086.94
544.51	1074.54
544.86	1080.63
545.22	1080.86
545.57	1070.33
545.93	1072.43
546.28	1072.20
546.64	1069.39
546.99	1079.69
547.35	1086.94
547.70	1082.97
548.05	1077.58
548.41	1078.99
548.76	1065.65
549.12	1071.50
549.47	1076.18
549.83	1096.54
550.18	1097.95
550.53	1092.09
550.89	1085.07
551.24	1073.14
551.60	1064.94
551.95	1060.26
552.30	1066.82
552.66	1068.45
553.01	1073.14
553.37	1066.35
553.72	1070.09
554.07	1075.48
554.43	1072.90
554.78	1081.09
555.13	1087.88
555.49	1087.41
555.84	1080.63
556.19	1083.43
556.55	1089.99
556.90	1096.54
557.26	1105.20
557.61	1103.09
557.96	1101.22
558.32	1090.22
558.67	1086.71
559.02	1076.18
559.37	1081.56
559.73	1089.52
560.08	1086.71
560.43	1088.82
560.79	1091.86
561.14	1086.94
561.49	1081.09
561.85	1081.80
562.20	1074.31
562.55	1081.09
562.90	1088.58
563.26	1091.86
563.61	1091.16
563.96	1095.37
564.32	1083.20
564.67	1074.31
565.02	1069.16
565.37	1078.99
565.73	1076.41
566.08	1077.35
566.43	1078.99
566.78	1075.71
567.14	1070.80
567.49	1081.80
567.84	1080.86
568.19	1092.33
568.54	1094.90
568.90	1086.94
569.25	1080.39
569.60	1084.60
569.95	1090.46
570.31	1083.20
570.66	1090.22
571.01	1093.50
571.36	1091.16
571.71	1080.16
572.06	1089.75
572.42	1091.16
572.77	1092.33
573.12	1090.22
573.47	1102.63
573.82	1107.07
574.18	1096.54
574.53	1092.80
574.88	1100.29
575.23	1083.20
575.58	1072.67
575.93	1071.97
576.28	1067.52
576.64	1066.11
576.99	1072.43
577.34	1071.73
577.69	1087.88
578.04	1096.07
578.39	1100.99
578.74	1091.16
579.09	1095.60
579.44	1077.58
579.80	1062.37
580.15	1059.79
580.50	1064.48
580.85	1067.28
581.20	1076.65
581.55	1083.43
581.90	1076.41
582.25	1086.01
582.60	1082.03
582.95	1079.22
583.30	1082.73
583.65	1083.20
584.00	1078.99
584.35	1075.94
584.71	1070.33
585.06	1067.28
585.41	1066.82
585.76	1065.65
586.11	1064.24
586.46	1074.77
586.81	1079.69
587.16	1084.60
587.51	1087.65
587.86	1100.05
588.21	1094.67
588.56	1094.20
588.91	1093.03
589.26	1082.50
589.61	1080.63
589.96	1085.07
590.31	1078.28
590.66	1078.52
591.01	1076.65
591.36	1069.62
591.71	1073.84
592.06	1069.39
592.41	1063.31
592.76	1072.20
593.10	1071.50
593.45	1062.14
593.80	1069.86
594.15	1068.45
594.50	1063.07
594.85	1057.22
595.20	1055.11
595.55	1057.92
595.90	1060.96
596.25	1059.79
596.60	1074.31
596.95	1090.46
597.30	1079.69
597.64	1127.67
597.99	1135.86
598.34	1133.99
598.69	1121.12
599.04	1125.33
599.39	1083.67
599.74	1083.90
600.09	1078.99
600.44	1083.90
600.78	1088.35
601.13	1081.56
601.48	1070.09
601.83	1064.48
602.18	1060.03
602.53	1067.05
602.88	1071.26
603.22	1074.54
603.57	1075.94
603.92	1071.03
604.27	1068.45
604.62	1069.86
604.97	1065.41
605.31	1073.37
605.66	1082.26
606.01	1072.20
606.36	1074.07
606.71	1083.67
607.05	1086.71
607.40	1087.65
607.75	1092.56
608.10	1094.43
608.44	1087.41
608.79	1082.97
609.14	1077.11
609.49	1078.05
609.84	1075.24
610.18	1087.65
610.53	1083.90
610.88	1092.56
611.23	1095.37
611.57	1093.50
611.92	1081.56
612.27	1088.35
612.62	1082.97
612.96	1083.90
613.31	1082.73
613.66	1087.41
614.00	1090.46
614.35	1090.46
614.70	1090.22
615.05	1091.86
615.39	1097.48
615.74	1095.60
616.09	1091.16
616.43	1086.71
616.78	1077.11
617.13	1072.43
617.47	1068.22
617.82	1064.71
618.17	1061.43
618.51	1062.60
618.86	1058.16
619.21	1056.75
619.55	1065.41
619.90	1057.45
620.25	1064.48
620.59	1066.82
620.94	1076.18
621.29	1074.54
621.63	1093.03
621.98	1095.37
622.32	1109.88
622.67	1100.99
623.02	1108.01
623.36	1099.35
623.71	1094.43
624.05	1082.03
624.40	1082.97
624.75	1073.14
625.09	1086.94
625.44	1089.29
625.78	1083.67
626.13	1078.28
626.48	1081.09
626.82	1076.65
627.17	1078.75
627.51	1082.03
627.86	1099.82
628.20	1097.01
628.55	1089.05
628.89	1081.56
629.24	1083.43
629.58	1079.92
629.93	1083.20
630.28	1085.54
630.62	1091.39
630.97	1091.86
631.31	1081.56
631.66	1085.31
632.00	1084.84
632.35	1088.82
632.69	1082.97
633.04	1079.22
633.38	1074.77
633.73	1071.73
634.07	1064.24
634.42	1067.28
634.76	1070.09
635.11	1070.33
635.45	1075.94
635.79	1071.26
636.14	1076.88
636.48	1074.77
636.83	1071.03
637.17	1068.45
637.52	1075.48
637.86	1074.54
638.21	1082.97
638.55	1086.48
638.89	1084.60
639.24	1086.94
639.58	1088.12
639.93	1084.60
640.27	1082.26
640.61	1083.43
640.96	1088.12
641.30	1082.26
641.65	1082.73
641.99	1077.11
642.33	1078.05
642.68	1068.22
643.02	1073.60
643.37	1069.16
643.71	1087.88
644.05	1094.67
644.40	1097.95
644.74	1094.43
645.08	1096.31
645.43	1091.63
645.77	1089.05
646.11	1089.99
646.46	1096.31
646.80	1098.65
647.14	1088.82
647.49	1081.56
647.83	1082.73
648.17	1083.20
648.52	1074.07
648.86	1080.39
649.20	1089.29
649.55	1087.18
649.89	1080.63
650.23	1094.90
650.57	1094.43
650.92	1098.18
651.26	1101.92
651.60	1104.26
651.95	1098.41
652.29	1097.71
652.63	1097.48
652.97	1092.80
653.32	1093.03
653.66	1085.07
654.00	1089.52
654.34	1072.43
654.69	1079.22
655.03	1077.11
655.37	1089.05
655.71	1075.71
656.05	1093.97
656.40	1089.52
656.74	1089.99
657.08	1089.75
657.42	1097.95
657.76	1092.56
658.11	1092.33
658.45	1089.75
658.79	1086.94
659.13	1089.99
659.47	1078.99
659.82	1068.22
660.16	1060.96
660.50	1064.48
660.84	1072.90
661.18	1080.86
661.52	1082.97
661.87	1083.67
662.21	1078.52
662.55	1061.20
662.89	1046.45
663.23	1068.69
663.57	1078.52
663.91	1076.65
664.25	1080.86
664.60	1094.90
664.94	1078.99
665.28	1079.46
665.62	1085.77
665.96	1092.80
666.30	1095.14
666.64	1098.65
666.98	1092.09
667.32	1090.92
667.66	1087.88
668.01	1082.26
668.35	1075.71
668.69	1075.94
669.03	1076.65
669.37	1079.22
669.71	1083.67
670.05	1087.41
670.39	1088.35
670.73	1088.82
671.07	1088.12
671.41	1071.97
671.75	1072.20
672.09	1071.97
672.43	1071.26
672.77	1060.73
673.11	1073.14
673.45	1078.05
673.79	1085.77
674.13	1078.75
674.47	1093.03
674.81	1089.99
675.15	1087.88
675.49	1078.99
675.83	1088.35
676.17	1081.09
676.51	1097.01
676.85	1089.29
677.19	1091.16
677.53	1086.24
677.87	1095.14
678.21	1083.67
678.55	1079.46
678.89	1080.16
679.23	1082.73
679.57	1076.41
679.90	1075.48
680.24	1089.99
680.58	1104.03
680.92	1099.35
681.26	1110.82
681.60	1108.01
681.94	1092.56
682.28	1073.37
682.62	1082.73
682.96	1065.88
683.29	1064.71
683.63	1073.14
683.97	1082.03
684.31	1081.56
684.65	1088.58
684.99	1096.31
685.33	1100.52
685.67	1103.09
686.00	1089.75
686.34	1087.18
686.68	1078.75
687.02	1076.88
687.36	1075.71
687.70	1085.31
688.03	1079.22
688.37	1085.07
688.71	1075.71
689.05	1081.33
689.39	1068.69
689.72	1076.18
690.06	1075.48
690.40	1079.92
690.74	1077.11
691.08	1084.84
691.41	1089.75
691.75	1086.71
692.09	1094.67
692.43	1094.90
692.76	1097.24
693.10	1089.75
693.44	1089.29
693.78	1090.46
694.11	1084.14
694.45	1076.18
694.79	1075.01
695.13	1076.18
695.46	1065.18
695.80	1058.62
696.14	1068.92
696.48	1080.63
696.81	1082.50
697.15	1088.35
697.49	1100.05
697.82	1093.26
698.16	1088.82
698.50	1086.71
698.83	1089.29
699.17	1085.31
699.51	1090.46
699.84	1086.48
700.18	1078.75
700.52	1075.94
700.85	1077.82
701.19	1085.07
701.53	1087.88
701.86	1093.73
702.20	1097.01
702.54	1095.60
702.87	1076.41
703.21	1074.07
703.55	1078.05
703.88	1066.35
704.22	1060.26
704.55	1077.35
704.89	1075.48
705.23	1069.86
705.56	1076.65
705.90	1074.77
706.23	1067.52
706.57	1070.33
706.91	1079.92
707.24	1085.07
707.58	1093.50
707.91	1090.92
708.25	1089.52
708.58	1086.01
708.92	1085.77
709.26	1077.58
709.59	1081.09
709.93	1073.37
710.26	1072.43
710.60	1069.39
710.93	1079.69
711.27	1075.24
711.60	1083.90
711.94	1087.41
712.27	1079.22
712.61	1076.88
712.94	1083.67
713.28	1078.28
713.61	1069.62
713.95	1083.90
714.28	1077.82
714.62	1079.22
714.95	1081.56
715.29	1090.92
715.62	1079.46
715.96	1088.58
716.29	1077.58
716.63	1067.05
716.96	1072.90
717.29	1076.65
717.63	1069.39
717.96	1070.56
718.30	1081.33
718.63	1065.65
718.97	1069.62
719.30	1070.09
719.63	1075.48
719.97	1072.20
720.30	1073.60
720.64	1077.58
720.97	1080.63
721.30	1086.01
721.64	1099.12
721.97	1108.01
722.31	1104.73
722.64	1107.31
722.97	1098.88
723.31	1078.99
723.64	1078.05
723.97	1073.60
724.31	1069.39
724.64	1067.99
724.98	1080.63
725.31	1079.46
725.64	1079.46
725.98	1087.65
726.31	1100.29
726.64	1096.07
726.97	1087.88
727.31	1092.33
727.64	1084.14
727.97	1071.26
728.31	1069.86
728.64	1068.92
728.97	1064.71
729.31	1064.71
729.64	1070.80
729.97	1059.09
730.30	1068.45
730.64	1065.41
730.97	1067.75
731.30	1059.79
731.63	1079.46
731.97	1077.82
732.30	1082.73
732.63	1085.31
732.96	1102.39
733.30	1099.12
733.63	1099.12
733.96	1093.03
734.29	1096.54
734.63	1086.01
734.96	1086.71
735.29	1084.60
735.62	1093.03
735.95	1089.52
736.29	1092.33
736.62	1090.92
736.95	1098.65
737.28	1097.01
737.61	1082.03
737.94	1078.52
738.28	1074.77
738.61	1058.86
738.94	1056.05
739.27	1072.67
739.60	1077.58
739.93	1083.43
740.27	1088.12
740.60	1097.71
740.93	1096.31
741.26	1090.22
741.59	1091.63
741.92	1087.65
742.25	1074.77
742.58	1067.28
742.91	1070.09
743.25	1061.20
743.58	1065.88
743.91	1083.20
744.24	1081.80
744.57	1087.41
744.90	1101.22
745.23	1104.03
745.56	1092.56
745.89	1099.82
746.22	1091.63
746.55	1085.77
746.88	1092.80
747.21	1089.75
747.54	1089.52
747.87	1100.29
748.20	1104.03
748.53	1088.12
748.87	1089.52
749.20	1090.92
749.53	1078.99
749.86	1067.52
750.19	1079.22
750.52	1076.65
750.85	1072.90
751.18	1071.97
751.51	1075.24
751.84	1067.28
752.16	1070.09
752.49	1073.60
752.82	1070.33
753.15	1075.01
753.48	1078.99
753.81	1081.80
754.14	1087.41
754.47	1097.95
754.80	1097.71
755.13	1103.56
755.46	1100.52
755.79	1087.18
756.12	1091.86
756.45	1086.01
756.78	1076.41
757.11	1084.14
757.43	1082.73
757.76	1070.33
758.09	1075.71
758.42	1083.20
758.75	1085.07
759.08	1089.29
759.41	1093.50
759.74	1079.22
760.07	1077.58
760.39	1061.43
760.72	1063.07
761.05	1067.28
761.38	1085.31
761.71	1079.92
762.04	1086.94
762.36	1091.16
762.69	1087.18
763.02	1082.03
763.35	1091.39
763.68	1090.46
764.01	1083.67
764.33	1085.31
764.66	1085.54
764.99	1079.92
765.32	1086.24
765.65	1088.12
765.97	1077.35
766.30	1080.16
766.63	1093.03
766.96	1091.39
767.28	1088.58
767.61	1096.54
767.94	1089.05
768.27	1068.22
768.59	1064.48
768.92	1061.67
769.25	1063.54
769.58	1059.56
769.90	1057.69
770.23	1062.60
770.56	1069.16
770.89	1067.05
771.21	1082.73
771.54	1096.31
771.87	1092.80
772.19	1092.09
772.52	1096.78
772.85	1082.73
773.17	1084.37
773.50	1081.33
773.83	1088.82
774.15	1081.80
774.48	1094.90
774.81	1090.22
775.13	1092.56
775.46	1083.43
775.79	1084.37
776.11	1077.35
776.44	1073.60
776.77	1066.82
777.09	1068.22
777.42	1067.28
777.74	1060.73
778.07	1061.67
778.40	1068.22
778.72	1064.71
779.05	1062.37
779.37	1069.16
779.70	1075.24
780.03	1083.20
780.35	1083.67
780.68	1089.75
781.00	1086.24
781.33	1085.07
781.65	1071.50
781.98	1067.28
782.31	1070.80
782.63	1076.88
782.96	1070.09
783.28	1073.37
783.61	1085.77
783.93	1080.16
784.26	1066.58
784.58	1073.14
784.91	1077.35
785.23	1067.75
785.56	1073.14
785.88	1083.20
786.21	1080.39
786.53	1076.88
786.86	1081.09
787.18	1073.37
787.51	1075.94
787.83	1086.71
788.16	1084.60
788.48	1072.90
788.81	1074.31
789.13	1065.65
789.46	1056.75
789.78	1057.22
790.10	1072.20
790.43	1077.11
790.75	1079.92
791.08	1084.60
791.40	1090.46
791.73	1102.39
792.05	1105.90
792.37	1103.09
792.70	1094.90
793.02	1089.05
793.35	1071.97
793.67	1074.54
793.99	1079.46
794.32	1079.46
794.64	1079.46
794.96	1093.73
795.29	1089.05
795.61	1089.75
795.93	1089.75
796.26	1084.60
796.58	1075.01
796.91	1074.54
797.23	1063.31
797.55	1066.11
797.87	1076.41
798.20	1080.39
798.52	1067.99
798.84	1070.09
799.17	1069.62
799.49	1066.58
799.81	1053.71
800.14	1067.05
800.46	1077.58
800.78	1085.31
801.10	1085.54
801.43	1093.03
801.75	1097.01
802.07	1092.56
802.40	1089.75
802.72	1087.65
803.04	1078.75
803.36	1074.31
803.69	1077.11
804.01	1080.63
804.33	1083.90
804.65	1092.56
804.97	1089.05
805.30	1086.24
805.62	1088.35
805.94	1085.54
806.26	1088.12
806.58	1094.67
806.91	1099.82
807.23	1087.41
807.55	1088.35
807.87	1080.39
808.19	1074.77
808.52	1072.67
808.84	1080.39
809.16	1085.31
809.48	1090.46
809.80	1084.60
810.12	1092.33
810.44	1090.46
810.77	1088.12
811.09	1082.97
811.41	1089.05
811.73	1077.58
812.05	1073.60
812.37	1068.92
812.69	1062.60
813.01	1056.75
813.33	1058.86
813.66	1056.28
813.98	1063.31
814.30	1075.24
814.62	1075.48
814.94	1079.22
815.26	1080.86
815.58	1075.94
815.90	1071.03
816.22	1078.99
816.54	1077.82
816.86	1076.18
817.18	1070.56
817.50	1079.22
817.82	1072.90
818.14	1074.54
818.46	1076.88
818.78	1079.92
819.10	1068.22
819.42	1062.84
819.74	1059.09
820.06	1058.86
820.38	1067.05
820.70	1066.35
821.02	1073.84
821.34	1065.88
821.66	1069.86
821.98	1059.79
822.30	1066.58
822.62	1068.69
822.94	1077.35
823.26	1069.86
823.58	1080.16
823.90	1083.90
824.22	1083.67
824.54	1076.88
824.86	1075.48
825.18	1069.62
825.50	1058.62
825.81	1051.84
826.13	1058.39
826.45	1060.03
826.77	1066.35
827.09	1087.41
827.41	1097.24
827.73	1092.56
828.05	1099.12
828.36	1087.41
828.68	1078.99
829.00	1070.09
829.32	1082.26
829.64	1080.63
829.96	1090.69
830.28	1091.16
830.59	1093.97
830.91	1087.88
831.23	1090.92
831.55	1083.90
831.87	1080.39
832.19	1081.80
832.50	1078.52
832.82	1078.52
833.14	1080.86
833.46	1079.69
833.78	1083.20
834.09	1086.48
834.41	1081.09
834.73	1084.60
835.05	1087.41
835.36	1079.22
835.68	1077.58
836.00	1069.62
836.32	1054.65
836.63	1048.56
836.95	1048.79
837.27	1049.73
837.59	1051.37
837.90	1066.58
838.22	1058.86
838.54	1059.33
838.85	1056.75
839.17	1067.28
839.49	1063.07
839.80	1081.09
840.12	1088.82
840.44	1089.29
840.76	1095.37
841.07	1095.14
841.39	1084.84
841.71	1079.92
842.02	1075.48
842.34	1069.16
842.65	1075.48
842.97	1078.75
843.29	1081.56
843.60	1083.20
843.92	1075.24
844.24	1075.94
844.55	1083.90
844.87	1081.80
845.18	1081.33
845.50	1087.41
845.82	1081.09
846.13	1062.14
846.45	1066.11
846.76	1070.33
847.08	1063.77
847.40	1070.56
847.71	1077.58
848.03	1075.24
848.34	1070.33
848.66	1078.28
848.97	1072.67
849.29	1080.16
849.60	1079.22
849.92	1087.18
850.24	1083.43
850.55	1087.88
850.87	1085.77
851.18	1093.26
851.50	1090.46
851.81	1095.84
852.13	1080.39
852.44	1082.26
852.76	1081.33
853.07	1085.77
853.39	1086.01
853.70	1104.26
854.01	1098.41
854.33	1096.07
854.64	1081.56
854.96	1066.58
855.27	1071.50
855.59	1067.05
855.90	1060.96
856.22	1072.67
856.53	1083.67
856.84	1062.84
857.16	1071.03
857.47	1072.90
857.79	1065.65
858.10	1064.94
858.41	1076.18
858.73	1081.09
859.04	1086.94
859.36	1098.88
859.67	1105.20
859.98	1112.22
860.30	1108.48
860.61	1109.41
860.92	1107.54
861.24	1096.54
861.55	1088.58
861.87	1088.35
862.18	1081.80
862.49	1080.63
862.81	1092.33
863.12	1089.99
863.43	1083.43
863.74	1079.22
864.06	1077.35
864.37	1070.56
864.68	1073.84
865.00	1077.82
865.31	1080.16
865.62	1081.56
865.94	1077.82
866.25	1078.05
866.56	1081.80
866.87	1089.99
867.19	1091.39
867.50	1097.71
867.81	1092.33
868.12	1086.24
868.44	1084.37
868.75	1087.65
869.06	1092.80
869.37	1099.35
869.68	1100.29
870.00	1098.88
870.31	1093.03
870.62	1091.16
870.93	1091.86
871.24	1097.24
871.56	1092.09
871.87	1088.58
872.18	1080.86
872.49	1072.20
872.80	1066.11
873.12	1071.26
873.43	1075.24
873.74	1089.99
874.05	1101.46
874.36	1105.20
874.67	1112.69
874.98	1115.97
875.29	1101.92
875.61	1093.03
875.92	1093.50
876.23	1094.67
876.54	1096.31
876.85	1103.80
877.16	1107.31
877.47	1100.29
877.78	1089.05
878.09	1084.84
878.40	1090.92
878.72	1093.26
879.03	1093.97
879.34	1097.01
879.65	1079.69
879.96	1066.82
880.27	1059.79
880.58	1059.33
880.89	1055.58
881.20	1070.80
881.51	1072.67
881.82	1072.20
882.13	1071.50
882.44	1071.03
882.75	1075.94
883.06	1065.65
883.37	1071.50
883.68	1082.50
883.99	1084.37
884.30	1081.80
884.61	1087.41
884.92	1089.52
885.23	1087.18
885.54	1089.29
885.85	1097.24
886.16	1101.22
886.47	1099.35
886.78	1093.73
887.08	1087.41
887.39	1073.60
887.70	1078.99
888.01	1074.31
888.32	1076.65
888.63	1082.50
888.94	1084.84
889.25	1076.18
889.56	1074.77
889.87	1079.22
890.17	1070.33
890.48	1068.92
890.79	1075.94
891.10	1074.07
891.41	1064.24
891.72	1069.86
892.03	1072.43
892.34	1066.11
892.64	1069.86
892.95	1072.67
893.26	1074.77
893.57	1074.54
893.88	1075.01
894.18	1073.37
894.49	1077.11
894.80	1077.82
895.11	1075.48
895.42	1076.88
895.72	1078.05
896.03	1073.60
896.34	1072.20
896.65	1083.67
896.96	1085.31
897.26	1089.52
897.57	1097.48
897.88	1089.05
898.19	1085.77
898.49	1084.37
898.80	1080.16
899.11	1070.80
899.41	1084.37
899.72	1086.24
900.03	1086.48
900.34	1088.12
900.64	1090.69
900.95	1086.71
901.26	1074.07
901.56	1073.84
901.87	1078.28
902.18	1080.63
902.48	1089.05
902.79	1084.84
903.10	1087.18
903.40	1079.69
903.71	1079.46
904.02	1062.14
904.32	1071.97
904.63	1078.52
904.94	1084.37
905.24	1079.22
905.55	1087.41
905.85	1086.71
906.16	1073.37
906.47	1066.82
906.77	1066.82
907.08	1068.92
907.38	1059.56
907.69	1065.18
908.00	1059.56
908.30	1063.77
908.61	1061.67
908.91	1071.26
909.22	1076.65
909.52	1080.86
909.83	1087.41
910.14	1089.75
910.44	1080.39
910.75	1072.90
911.05	1075.24
911.36	1073.14
911.66	1075.71
911.97	1087.65
912.27	1082.50
912.58	1087.88
912.88	1086.01
913.19	1072.90
913.49	1069.86
913.80	1074.31
914.10	1068.69
914.41	1061.67
914.71	1071.26
915.01	1070.80
915.32	1073.60
915.62	1076.41
915.93	1081.09
916.23	1089.52
916.54	1086.24
916.84	1083.90
917.15	1091.39
917.45	1089.75
917.75	1073.37
918.06	1067.05
918.36	1073.14
918.67	1068.45
918.97	1066.11
919.27	1071.26
919.58	1079.46
919.88	1078.99
920.18	1079.46
920.49	1090.46
920.79	1087.41
921.10	1093.26
921.40	1085.07
921.70	1077.82
922.01	1068.69
922.31	1066.82
922.61	1056.28
922.92	1052.07
923.22	1055.82
923.52	1051.37
923.82	1054.88
924.13	1065.88
924.43	1077.11
924.73	1079.46
925.04	1080.63
925.34	1084.37
925.64	1067.99
925.94	1058.62
926.25	1050.43
926.55	1062.60
926.85	1069.62
927.15	1087.65
927.46	1097.24
927.76	1100.05
928.06	1094.20
928.36	1095.60
928.67	1091.63
928.97	1089.52
929.27	1104.26
929.57	1100.99
929.87	1088.35
930.18	1085.31
930.48	1078.05
930.78	1075.71
931.08	1075.94
931.38	1083.43
931.69	1087.41
931.99	1102.86
932.29	1094.67
932.59	1092.09
932.89	1080.39
933.19	1074.77
933.49	1062.60
933.80	1064.01
934.10	1065.18
934.40	1066.11
934.70	1066.35
935.00	1065.65
935.30	1063.77
935.60	1056.99
935.90	1057.22
936.20	1057.92
936.50	1060.96
936.81	1070.56
937.11	1086.01
937.41	1090.69
937.71	1093.50
938.01	1094.20
938.31	1085.31
938.61	1076.65
938.91	1077.82
939.21	1078.75
939.51	1081.09
939.81	1078.99
940.11	1077.35
940.41	1078.75
940.71	1074.54
941.01	1075.24
941.31	1077.11
941.61	1078.28
941.91	1087.41
942.21	1092.56
942.51	1085.31
942.81	1088.35
943.11	1096.31
943.41	1086.94
943.71	1089.99
944.01	1081.09
944.31	1074.77
944.61	1074.07
944.90	1071.03
945.20	1074.07
945.50	1087.88
945.80	1091.86
946.10	1078.52
946.40	1069.86
946.70	1069.62
947.00	1063.54
947.30	1061.90
947.60	1068.69
947.89	1083.20
948.19	1071.97
948.49	1077.35
948.79	1069.39
949.09	1077.35
949.39	1077.58
949.69	1078.52
949.98	1073.60
950.28	1076.18
950.58	1079.69
950.88	1077.58
951.18	1076.88
951.48	1072.43
951.77	1070.80
952.07	1066.11
952.37	1065.65
952.67	1074.31
952.97	1089.75
953.26	1093.97
953.56	1096.78
953.86	1094.67
954.16	1088.58
954.45	1084.37
954.75	1096.31
955.05	1101.22
955.35	1093.26
955.64	1085.07
955.94	1085.54
956.24	1080.86
956.54	1080.16
956.83	1091.16
957.13	1098.65
957.43	1093.50
957.72	1085.77
958.02	1084.37
958.32	1078.75
958.61	1073.84
958.91	1079.22
959.21	1083.67
959.50	1072.20
959.80	1066.11
960.10	1073.84
960.39	1071.50
960.69	1071.50
960.99	1074.54
961.28	1080.16
961.58	1077.58
961.87	1074.54
962.17	1071.50
962.47	1071.97
962.76	1073.37
963.06	1077.82
963.36	1082.73
963.65	1084.14
963.95	1084.14
964.24	1083.43
964.54	1084.37
964.83	1091.63
965.13	1093.73
965.42	1091.39
965.72	1087.88
966.02	1088.58
966.31	1085.54
966.61	1086.94
966.90	1090.22
967.20	1096.54
967.49	1096.07
967.79	1088.12
968.08	1082.26
968.38	1082.03
968.67	1071.03
968.97	1061.20
969.26	1057.92
969.56	1058.16
969.85	1055.82
970.15	1056.99
970.44	1053.01
970.74	1060.50
971.03	1065.88
971.32	1065.65
971.62	1079.92
971.91	1093.50
972.21	1093.97
972.50	1087.88
972.80	1079.46
973.09	1070.33
973.38	1073.37
973.68	1072.67
973.97	1070.80
974.27	1082.50
974.56	1086.94
974.85	1072.20
975.15	1067.99
975.44	1068.92
975.73	1059.79
976.03	1054.18
976.32	1060.96
976.61	1063.07
976.91	1074.31
977.20	1083.67
977.49	1086.94
977.79	1084.14
978.08	1086.24
978.37	1078.28
978.67	1078.99
978.96	1073.37
979.25	1076.65
979.55	1071.50
979.84	1076.65
980.13	1073.14
980.42	1075.94
980.72	1074.54
981.01	1079.69
981.30	1082.73
981.59	1084.84
981.89	1089.52
982.18	1093.73
982.47	1082.50
982.76	1076.65
983.06	1075.71
983.35	1073.14
983.64	1070.80
983.93	1077.58
984.22	1077.82
984.52	1073.60
984.81	1080.86
985.10	1075.94
985.39	1074.77
985.68	1072.90
985.97	1074.07
986.27	1066.82
986.56	1069.86
986.85	1071.97
987.14	1071.50
987.43	1080.86
987.72	1089.52
988.01	1090.69
988.31	1084.84
988.60	1095.37
988.89	1086.01
989.18	1081.33
989.47	1080.63
989.76	1098.18
990.05	1085.77
990.34	1091.16
990.63	1093.03
990.92	1093.73
991.21	1087.18
991.51	1088.82
991.80	1085.54
992.09	1075.94
992.38	1078.99
992.67	1074.31
992.96	1074.77
993.25	1075.24
993.54	1085.54
993.83	1078.75
994.12	1072.67
994.41	1072.43
994.70	1065.88
994.99	1064.01
995.28	1070.80
995.57	1072.67
995.86	1073.84
996.15	1077.35
996.44	1074.77
996.73	1072.20
997.02	1074.07
997.31	1065.88
997.59	1061.43
997.88	1066.11
998.17	1070.80
998.46	1080.86
998.75	1090.46
999.04	1093.73
999.33	1090.69
999.62	1081.56
999.91	1074.77
1000.20	1073.60
1000.49	1085.31
1000.77	1080.16
1001.06	1073.37
1001.35	1083.67
1001.64	1080.63
1001.93	1089.05
1002.22	1086.94
1002.51	1094.67
1002.79	1079.22
1003.08	1074.54
1003.37	1056.99
1003.66	1066.82
1003.95	1071.97
1004.23	1066.58
1004.52	1072.67
1004.81	1071.26
1005.10	1070.56
1005.39	1070.09
1005.67	1081.09
1005.96	1089.99
1006.25	1097.01
1006.54	1099.58
1006.83	1093.26
1007.11	1096.54
1007.40	1087.41
1007.69	1083.20
1007.97	1080.16
1008.26	1083.67
1008.55	1074.07
1008.84	1078.99
1009.12	1083.90
1009.41	1082.97
1009.70	1078.99
1009.98	1078.99
1010.27	1078.99
1010.56	1074.54
1010.85	1075.71
1011.13	1080.16
1011.42	1080.16
1011.71	1074.77
1011.99	1069.39
1012.28	1069.62
1012.56	1063.77
1012.85	1067.99
1013.14	1069.39
1013.42	1079.69
1013.71	1076.65
1014.00	1085.54
1014.28	1090.22
1014.57	1093.50
1014.85	1082.97
1015.14	1084.14
1015.43	1080.39
1015.71	1080.16
1016.00	1074.54
1016.28	1080.16
1016.57	1078.52
1016.85	1077.35
1017.14	1080.86
1017.43	1079.69
1017.71	1083.90
1018.00	1083.67
1018.28	1090.46
1018.57	1079.46
1018.85	1089.52
1019.14	1085.07
1019.42	1082.73
1019.71	1080.63
1019.99	1080.16
1020.28	1068.69
1020.56	1064.48
1020.85	1063.31
1021.13	1073.14
1021.42	1078.05
1021.70	1077.35
1021.99	1078.28
1022.27	1085.54
1022.55	1061.43
1022.84	1094.20
>>>>>End Processed Spectral Data<<<<<
