SpectraSuite Data File
++++++++++++++++++++++++++++++++++++
Date: Mon Aug 26 10:25:53 PDT 2019
User: corrico
Dark Spectrum Present: No
Reference Spectrum Present: No
Number of Sampled Component Spectra: 1
Spectrometers: USB2+H06089
Integration Time (usec): 10000 (USB2+H06089)
Spectra Averaged: 2 (USB2+H06089)
Boxcar Smoothing: 2 (USB2+H06089)
Correct for Electrical Dark: No (USB2+H06089)
Strobe/Lamp Enabled: No (USB2+H06089)
Correct for Detector Non-linearity: No (USB2+H06089)
Correct for Stray Light: No (USB2+H06089)
Number of Pixels in Processed Spectrum: 2048
>>>>>Begin Processed Spectral Data<<<<<
339.70	1015.79
340.07	1015.79
340.45	989.34
340.82	966.41
341.19	943.70
341.57	920.06
341.94	907.66
342.31	894.32
342.69	887.77
343.06	875.59
343.43	875.59
343.81	887.77
344.18	885.89
344.55	888.00
344.93	899.23
345.30	909.06
345.67	911.64
346.04	932.47
346.42	950.49
346.79	965.71
347.16	971.56
347.54	971.32
347.91	971.79
348.28	976.24
348.65	986.54
349.03	994.73
349.40	1013.45
349.77	1016.26
350.14	1025.39
350.52	1029.13
350.89	1031.24
351.26	1032.18
351.63	1045.28
352.01	1053.01
352.38	1068.69
352.75	1075.48
353.12	1084.84
353.50	1088.82
353.87	1097.48
354.24	1086.48
354.61	1082.73
354.98	1075.48
355.36	1071.26
355.73	1070.33
356.10	1071.50
356.47	1084.14
356.84	1081.80
357.22	1088.58
357.59	1079.22
357.96	1082.50
358.33	1080.63
358.70	1078.75
359.08	1067.75
359.45	1065.88
359.82	1054.65
360.19	1048.79
360.56	1052.54
360.94	1064.24
361.31	1075.01
361.68	1079.69
362.05	1078.99
362.42	1085.77
362.79	1082.26
363.16	1076.18
363.54	1082.97
363.91	1082.73
364.28	1072.20
364.65	1070.09
365.02	1073.60
365.39	1064.71
365.76	1065.65
366.14	1072.67
366.51	1074.07
366.88	1076.41
367.25	1082.50
367.62	1082.73
367.99	1084.14
368.36	1075.24
368.73	1068.22
369.10	1069.62
369.48	1071.50
369.85	1069.86
370.22	1075.48
370.59	1067.05
370.96	1066.82
371.33	1068.69
371.70	1072.20
372.07	1066.58
372.44	1070.09
372.81	1071.73
373.18	1064.71
373.55	1059.79
373.93	1060.73
374.30	1066.35
374.67	1060.73
375.04	1063.07
375.41	1067.05
375.78	1069.16
376.15	1065.41
376.52	1060.03
376.89	1056.05
377.26	1060.50
377.63	1064.48
378.00	1064.24
378.37	1073.37
378.74	1087.18
379.11	1078.75
379.48	1073.14
379.85	1072.90
380.22	1069.86
380.59	1067.75
380.96	1078.05
381.33	1084.37
381.70	1095.14
382.07	1097.48
382.44	1083.90
382.81	1066.82
383.18	1066.35
383.55	1045.52
383.92	1039.43
384.29	1047.16
384.66	1060.26
385.03	1071.03
385.40	1076.88
385.77	1075.71
386.14	1070.80
386.51	1059.09
386.88	1043.88
387.25	1048.09
387.62	1054.18
387.99	1057.45
388.36	1064.94
388.73	1071.73
389.10	1078.05
389.46	1085.77
389.83	1084.60
390.20	1085.31
390.57	1086.48
390.94	1087.65
391.31	1078.52
391.68	1071.50
392.05	1072.20
392.42	1073.14
392.79	1067.28
393.16	1070.09
393.53	1084.60
393.89	1084.84
394.26	1077.58
394.63	1087.88
395.00	1087.18
395.37	1087.41
395.74	1079.69
396.11	1086.94
396.48	1083.90
396.84	1075.94
397.21	1073.37
397.58	1080.39
397.95	1078.05
398.32	1078.75
398.69	1089.75
399.06	1087.41
399.42	1083.90
399.79	1084.84
400.16	1075.01
400.53	1071.73
400.90	1078.05
401.27	1081.33
401.64	1078.52
402.00	1081.09
402.37	1084.84
402.74	1085.77
403.11	1082.97
403.48	1090.46
403.84	1086.48
404.21	1082.73
404.58	1073.14
404.95	1067.99
405.32	1057.22
405.68	1063.77
406.05	1058.86
406.42	1066.11
406.79	1069.39
407.16	1074.07
407.52	1069.86
407.89	1070.09
408.26	1065.18
408.63	1069.39
408.99	1058.39
409.36	1064.01
409.73	1066.11
410.10	1071.26
410.47	1070.33
410.83	1081.33
411.20	1076.65
411.57	1079.46
411.94	1080.86
412.30	1078.52
412.67	1080.39
413.04	1087.41
413.40	1088.58
413.77	1080.16
414.14	1078.05
414.51	1074.07
414.87	1068.45
415.24	1063.07
415.61	1054.18
415.97	1057.92
416.34	1056.75
416.71	1059.33
417.08	1065.18
417.44	1076.65
417.81	1072.67
418.18	1074.54
418.54	1067.05
418.91	1059.33
419.28	1057.22
419.64	1060.96
420.01	1064.71
420.38	1066.58
420.74	1071.03
421.11	1076.65
421.48	1080.39
421.84	1076.18
422.21	1081.33
422.58	1076.88
422.94	1065.88
423.31	1065.88
423.68	1065.41
424.04	1060.03
424.41	1062.14
424.77	1070.80
425.14	1069.62
425.51	1071.50
425.87	1076.88
426.24	1082.97
426.61	1080.16
426.97	1080.16
427.34	1077.11
427.70	1081.09
428.07	1080.86
428.44	1087.41
428.80	1083.20
429.17	1089.29
429.53	1082.73
429.90	1079.22
430.27	1072.43
430.63	1072.67
431.00	1070.80
431.36	1074.54
431.73	1076.18
432.09	1072.43
432.46	1071.73
432.83	1072.43
433.19	1080.39
433.56	1086.24
433.92	1083.67
434.29	1089.29
434.65	1082.97
435.02	1077.58
435.38	1072.67
435.75	1080.63
436.11	1077.11
436.48	1078.52
436.84	1067.52
437.21	1072.20
437.57	1079.46
437.94	1084.37
438.30	1085.07
438.67	1096.07
439.03	1091.16
439.40	1089.99
439.76	1094.67
440.13	1101.22
440.49	1088.82
440.86	1087.41
441.22	1075.71
441.59	1063.77
441.95	1055.35
442.32	1063.54
442.68	1071.97
443.05	1075.48
443.41	1077.58
443.78	1079.92
444.14	1077.82
444.51	1074.31
444.87	1077.82
445.24	1083.43
445.60	1086.48
445.96	1093.26
446.33	1090.92
446.69	1091.86
447.06	1092.80
447.42	1099.35
447.79	1097.71
448.15	1102.63
448.51	1099.12
448.88	1086.94
449.24	1080.16
449.61	1068.69
449.97	1056.05
450.33	1061.67
450.70	1068.22
451.06	1066.58
451.43	1078.28
451.79	1087.18
452.15	1082.73
452.52	1082.97
452.88	1085.07
453.24	1078.05
453.61	1081.56
453.97	1080.39
454.34	1077.82
454.70	1082.73
455.06	1088.12
455.43	1076.88
455.79	1076.65
456.15	1075.24
456.52	1071.03
456.88	1075.71
457.24	1086.71
457.61	1096.78
457.97	1100.75
458.33	1099.35
458.70	1102.63
459.06	1090.92
459.42	1086.24
459.79	1083.43
460.15	1090.22
460.51	1074.31
460.88	1089.75
461.24	1082.03
461.60	1082.73
461.96	1074.31
462.33	1079.92
462.69	1067.52
463.05	1077.82
463.42	1068.69
463.78	1062.60
464.14	1060.73
464.50	1065.65
464.87	1060.73
465.23	1077.58
465.59	1082.97
465.95	1080.86
466.32	1081.33
466.68	1082.26
467.04	1083.43
467.40	1081.09
467.77	1085.77
468.13	1090.69
468.49	1088.35
468.85	1071.03
469.22	1082.03
469.58	1073.84
469.94	1056.28
470.30	1059.79
470.66	1065.88
471.03	1061.20
471.39	1064.01
471.75	1068.92
472.11	1064.01
472.47	1072.67
472.84	1062.84
473.20	1063.31
473.56	1071.97
473.92	1067.28
474.28	1060.50
474.65	1066.35
475.01	1073.37
475.37	1069.39
475.73	1081.09
476.09	1085.54
476.45	1084.60
476.81	1078.28
477.18	1074.31
477.54	1066.58
477.90	1057.22
478.26	1051.84
478.62	1060.96
478.98	1068.69
479.34	1073.37
479.71	1076.18
480.07	1082.26
480.43	1075.01
480.79	1068.45
481.15	1056.52
481.51	1068.69
481.87	1072.20
482.23	1079.69
482.59	1085.54
482.96	1092.56
483.32	1087.18
483.68	1087.41
484.04	1085.77
484.40	1085.31
484.76	1075.24
485.12	1078.75
485.48	1074.54
485.84	1066.58
486.20	1059.33
486.56	1069.62
486.92	1061.43
487.28	1068.92
487.64	1068.69
488.00	1069.16
488.37	1069.39
488.73	1068.22
489.09	1069.16
489.45	1070.80
489.81	1080.16
490.17	1080.86
490.53	1090.22
490.89	1081.80
491.25	1080.39
491.61	1073.14
491.97	1078.28
492.33	1067.52
492.69	1073.37
493.05	1079.92
493.41	1084.84
493.77	1083.90
494.13	1090.69
494.49	1098.88
494.85	1108.48
495.21	1107.31
495.57	1104.50
495.93	1103.33
496.29	1095.60
496.64	1085.54
497.00	1084.84
497.36	1083.67
497.72	1075.94
498.08	1066.82
498.44	1067.05
498.80	1068.69
499.16	1065.65
499.52	1068.69
499.88	1074.07
500.24	1079.22
500.60	1080.86
500.96	1082.73
501.32	1076.41
501.68	1070.56
502.03	1062.84
502.39	1056.99
502.75	1066.82
503.11	1082.03
503.47	1092.80
503.83	1090.46
504.19	1090.69
504.55	1083.43
504.91	1076.41
505.26	1078.28
505.62	1086.24
505.98	1090.22
506.34	1090.69
506.70	1095.84
507.06	1093.03
507.42	1077.82
507.78	1078.28
508.13	1077.58
508.49	1074.77
508.85	1078.05
509.21	1084.60
509.57	1082.26
509.93	1087.41
510.28	1091.86
510.64	1086.24
511.00	1091.39
511.36	1092.09
511.72	1085.31
512.07	1082.50
512.43	1089.05
512.79	1095.14
513.15	1099.12
513.51	1102.39
513.86	1101.92
514.22	1097.24
514.58	1096.54
514.94	1093.26
515.30	1094.43
515.65	1095.60
516.01	1099.82
516.37	1084.60
516.73	1069.86
517.08	1068.45
517.44	1076.18
517.80	1078.75
518.16	1083.90
518.51	1093.03
518.87	1099.58
519.23	1096.78
519.59	1086.48
519.94	1083.43
520.30	1094.90
520.66	1085.54
521.01	1081.80
521.37	1090.92
521.73	1091.86
522.09	1089.52
522.44	1097.01
522.80	1086.71
523.16	1082.73
523.51	1090.92
523.87	1087.41
524.23	1081.80
524.58	1092.33
524.94	1090.46
525.30	1087.65
525.65	1082.26
526.01	1077.11
526.37	1074.54
526.72	1074.54
527.08	1077.35
527.44	1085.07
527.79	1100.29
528.15	1095.84
528.51	1091.39
528.86	1091.63
529.22	1079.69
529.58	1065.41
529.93	1073.14
530.29	1085.31
530.65	1081.56
531.00	1088.58
531.36	1093.50
531.71	1097.71
532.07	1087.18
532.43	1096.54
532.78	1099.58
533.14	1096.54
533.49	1091.16
533.85	1089.05
534.21	1083.90
534.56	1080.16
534.92	1081.33
535.27	1080.16
535.63	1095.14
535.98	1098.41
536.34	1113.39
536.69	1120.18
537.05	1126.03
537.41	1115.03
537.76	1106.61
538.12	1096.31
538.47	1094.20
538.83	1082.73
539.18	1078.05
539.54	1085.54
539.89	1089.99
540.25	1090.92
540.60	1100.52
540.96	1100.29
541.31	1101.69
541.67	1100.05
542.02	1099.35
542.38	1092.56
542.73	1097.01
543.09	1100.05
543.44	1099.12
543.80	1098.88
544.15	1093.03
544.51	1093.73
544.86	1083.43
545.22	1074.31
545.57	1072.90
545.93	1089.29
546.28	1092.09
546.64	1087.41
546.99	1098.18
547.35	1094.90
547.70	1087.65
548.05	1083.43
548.41	1092.56
548.76	1092.80
549.12	1090.69
549.47	1093.97
549.83	1098.41
550.18	1093.97
550.53	1088.35
550.89	1084.14
551.24	1084.60
551.60	1084.37
551.95	1086.94
552.30	1085.54
552.66	1099.35
553.01	1101.22
553.37	1104.97
553.72	1096.31
554.07	1099.35
554.43	1089.52
554.78	1089.99
555.13	1078.28
555.49	1081.09
555.84	1076.65
556.19	1080.16
556.55	1077.11
556.90	1079.22
557.26	1075.48
557.61	1071.03
557.96	1072.43
558.32	1067.28
558.67	1065.18
559.02	1075.94
559.37	1081.80
559.73	1078.05
560.08	1081.09
560.43	1078.99
560.79	1078.05
561.14	1075.01
561.49	1080.16
561.85	1072.67
562.20	1076.88
562.55	1071.50
562.90	1073.60
563.26	1073.37
563.61	1081.56
563.96	1087.41
564.32	1088.12
564.67	1085.77
565.02	1077.82
565.37	1074.54
565.73	1077.58
566.08	1078.99
566.43	1087.41
566.78	1089.99
567.14	1088.12
567.49	1085.07
567.84	1078.28
568.19	1075.48
568.54	1078.28
568.90	1075.01
569.25	1075.94
569.60	1088.35
569.95	1082.03
570.31	1077.58
570.66	1085.31
571.01	1086.01
571.36	1077.11
571.71	1081.80
572.06	1091.16
572.42	1086.24
572.77	1076.18
573.12	1075.24
573.47	1075.48
573.82	1071.50
574.18	1080.16
574.53	1081.33
574.88	1082.50
575.23	1078.28
575.58	1075.24
575.93	1056.75
576.28	1064.71
576.64	1070.33
576.99	1076.88
577.34	1079.46
577.69	1088.82
578.04	1079.46
578.39	1084.14
578.74	1082.73
579.09	1088.58
579.44	1081.56
579.80	1077.35
580.15	1071.03
580.50	1069.39
580.85	1055.35
581.20	1065.18
581.55	1067.75
581.90	1067.99
582.25	1070.80
582.60	1075.71
582.95	1076.65
583.30	1079.22
583.65	1085.31
584.00	1071.26
584.35	1067.28
584.71	1064.71
585.06	1064.94
585.41	1059.33
585.76	1073.37
586.11	1070.80
586.46	1065.41
586.81	1069.86
587.16	1068.22
587.51	1063.77
587.86	1069.39
588.21	1072.67
588.56	1069.62
588.91	1066.82
589.26	1064.94
589.61	1071.03
589.96	1078.75
590.31	1085.31
590.66	1085.31
591.01	1091.63
591.36	1096.07
591.71	1090.22
592.06	1087.88
592.41	1086.71
592.76	1089.29
593.10	1077.35
593.45	1089.52
593.80	1083.90
594.15	1081.56
594.50	1072.43
594.85	1079.92
595.20	1076.18
595.55	1077.11
595.90	1078.75
596.25	1086.01
596.60	1085.77
596.95	1077.82
597.30	1080.63
597.64	1139.14
597.99	1135.39
598.34	1133.29
598.69	1134.69
599.04	1134.22
599.39	1077.58
599.74	1083.90
600.09	1088.12
600.44	1089.05
600.78	1092.09
601.13	1090.69
601.48	1080.63
601.83	1084.37
602.18	1084.37
602.53	1071.97
602.88	1078.52
603.22	1080.16
603.57	1070.56
603.92	1060.96
604.27	1079.92
604.62	1081.33
604.97	1086.24
605.31	1089.75
605.66	1094.43
606.01	1081.80
606.36	1073.84
606.71	1071.73
607.05	1067.28
607.40	1060.50
607.75	1064.24
608.10	1061.20
608.44	1052.77
608.79	1058.16
609.14	1066.58
609.49	1056.52
609.84	1070.56
610.18	1087.18
610.53	1097.24
610.88	1099.82
611.23	1105.20
611.57	1107.54
611.92	1099.12
612.27	1085.54
612.62	1083.90
612.96	1085.07
613.31	1077.58
613.66	1085.31
614.00	1087.18
614.35	1090.22
614.70	1097.48
615.05	1108.71
615.39	1103.33
615.74	1105.67
616.09	1106.14
616.43	1104.97
616.78	1087.88
617.13	1089.99
617.47	1090.69
617.82	1093.03
618.17	1081.80
618.51	1084.37
618.86	1086.24
619.21	1082.03
619.55	1082.73
619.90	1093.26
620.25	1088.35
620.59	1085.77
620.94	1078.52
621.29	1072.20
621.63	1061.67
621.98	1071.73
622.32	1077.58
622.67	1084.84
623.02	1082.26
623.36	1092.80
623.71	1098.65
624.05	1077.82
624.40	1073.84
624.75	1071.97
625.09	1072.43
625.44	1060.03
625.78	1071.50
626.13	1073.84
626.48	1078.05
626.82	1071.50
627.17	1069.16
627.51	1076.65
627.86	1086.01
628.20	1094.43
628.55	1089.75
628.89	1101.46
629.24	1086.71
629.58	1071.03
629.93	1060.03
630.28	1060.50
630.62	1055.11
630.97	1062.84
631.31	1069.16
631.66	1071.50
632.00	1080.39
632.35	1079.92
632.69	1081.80
633.04	1077.11
633.38	1081.80
633.73	1077.11
634.07	1070.80
634.42	1065.65
634.76	1075.01
635.11	1075.71
635.45	1071.97
635.79	1075.94
636.14	1079.92
636.48	1079.92
636.83	1067.75
637.17	1070.09
637.52	1066.82
637.86	1059.33
638.21	1060.50
638.55	1071.03
638.89	1069.86
639.24	1073.60
639.58	1075.94
639.93	1064.01
640.27	1063.77
640.61	1069.39
640.96	1077.82
641.30	1075.01
641.65	1080.16
641.99	1079.92
642.33	1075.94
642.68	1078.28
643.02	1086.94
643.37	1095.14
643.71	1099.35
644.05	1110.35
644.40	1097.01
644.74	1101.92
645.08	1095.37
645.43	1091.86
645.77	1081.09
646.11	1081.80
646.46	1075.94
646.80	1077.82
647.14	1071.03
647.49	1072.90
647.83	1072.67
648.17	1069.39
648.52	1063.54
648.86	1062.84
649.20	1065.41
649.55	1066.11
649.89	1065.41
650.23	1064.48
650.57	1072.90
650.92	1071.03
651.26	1075.48
651.60	1078.05
651.95	1091.63
652.29	1083.20
652.63	1081.33
652.97	1077.35
653.32	1081.33
653.66	1077.11
654.00	1091.86
654.34	1098.41
654.69	1099.12
655.03	1097.95
655.37	1096.78
655.71	1076.65
656.05	1072.20
656.40	1066.35
656.74	1074.54
657.08	1073.37
657.42	1081.80
657.76	1083.90
658.11	1090.92
658.45	1082.50
658.79	1076.41
659.13	1078.28
659.47	1071.97
659.82	1076.41
660.16	1077.58
660.50	1075.94
660.84	1075.24
661.18	1085.77
661.52	1085.31
661.87	1079.46
662.21	1077.11
662.55	1077.58
662.89	1072.20
663.23	1066.35
663.57	1066.82
663.91	1071.73
664.25	1066.58
664.60	1057.45
664.94	1064.71
665.28	1071.73
665.62	1075.71
665.96	1086.71
666.30	1098.88
666.64	1099.35
666.98	1089.29
667.32	1083.90
667.66	1074.31
668.01	1070.56
668.35	1060.50
668.69	1065.65
669.03	1075.01
669.37	1088.82
669.71	1095.60
670.05	1103.56
670.39	1110.82
670.73	1108.95
671.07	1094.67
671.41	1082.26
671.75	1069.86
672.09	1057.92
672.43	1064.24
672.77	1066.82
673.11	1073.37
673.45	1082.26
673.79	1082.97
674.13	1075.01
674.47	1069.86
674.81	1065.65
675.15	1075.01
675.49	1082.97
675.83	1087.18
676.17	1093.03
676.51	1097.48
676.85	1083.67
677.19	1069.62
677.53	1064.01
677.87	1058.62
678.21	1049.96
678.55	1058.86
678.89	1071.50
679.23	1074.77
679.57	1072.67
679.90	1082.50
680.24	1069.86
680.58	1065.65
680.92	1067.52
681.26	1071.97
681.60	1075.24
681.94	1083.43
682.28	1087.88
682.62	1091.39
682.96	1097.24
683.29	1096.54
683.63	1088.82
683.97	1080.16
684.31	1073.14
684.65	1061.90
684.99	1053.94
685.33	1055.82
685.67	1060.73
686.00	1059.79
686.34	1070.33
686.68	1075.01
687.02	1080.86
687.36	1076.41
687.70	1077.82
688.03	1071.97
688.37	1074.31
688.71	1073.37
689.05	1075.71
689.39	1076.65
689.72	1076.18
690.06	1070.56
690.40	1075.48
690.74	1083.90
691.08	1075.71
691.41	1078.75
691.75	1075.94
692.09	1067.99
692.43	1062.14
692.76	1068.45
693.10	1071.26
693.44	1070.33
693.78	1078.05
694.11	1086.24
694.45	1085.54
694.79	1082.26
695.13	1081.56
695.46	1083.20
695.80	1072.90
696.14	1066.35
696.48	1067.28
696.81	1076.88
697.15	1075.48
697.49	1082.97
697.82	1090.22
698.16	1088.12
698.50	1081.33
698.83	1075.01
699.17	1065.18
699.51	1061.67
699.84	1068.22
700.18	1079.69
700.52	1099.58
700.85	1099.12
701.19	1104.26
701.53	1110.35
701.86	1101.22
702.20	1091.39
702.54	1090.22
702.87	1093.03
703.21	1075.71
703.55	1078.05
703.88	1070.56
704.22	1075.94
704.55	1068.22
704.89	1074.31
705.23	1076.65
705.56	1078.99
705.90	1082.97
706.23	1087.88
706.57	1092.09
706.91	1085.54
707.24	1085.07
707.58	1075.94
707.91	1076.41
708.25	1072.67
708.58	1074.77
708.92	1064.71
709.26	1073.60
709.59	1060.50
709.93	1055.58
710.26	1063.07
710.60	1072.43
710.93	1058.62
711.27	1072.90
711.60	1087.88
711.94	1086.01
712.27	1076.41
712.61	1092.09
712.94	1082.26
713.28	1065.65
713.61	1069.16
713.95	1081.09
714.28	1074.54
714.62	1086.48
714.95	1091.16
715.29	1087.65
715.62	1083.67
715.96	1078.52
716.29	1070.33
716.63	1066.58
716.96	1057.92
717.29	1057.69
717.63	1062.60
717.96	1065.18
718.30	1073.60
718.63	1079.69
718.97	1075.94
719.30	1084.37
719.63	1076.88
719.97	1071.97
720.30	1068.69
720.64	1071.73
720.97	1068.92
721.30	1084.84
721.64	1093.73
721.97	1093.97
722.31	1091.39
722.64	1086.01
722.97	1072.20
723.31	1063.31
723.64	1060.73
723.97	1068.92
724.31	1069.39
724.64	1075.48
724.98	1074.54
725.31	1087.41
725.64	1070.33
725.98	1070.33
726.31	1070.56
726.64	1077.58
726.97	1062.84
727.31	1079.22
727.64	1077.58
727.97	1075.48
728.31	1069.86
728.64	1082.50
728.97	1074.77
729.31	1084.60
729.64	1086.24
729.97	1081.80
730.30	1074.07
730.64	1078.75
730.97	1077.82
731.30	1077.82
731.63	1078.75
731.97	1080.16
732.30	1078.05
732.63	1066.58
732.96	1060.50
733.30	1071.73
733.63	1075.01
733.96	1070.80
734.29	1069.86
734.63	1080.86
734.96	1071.97
735.29	1067.99
735.62	1078.28
735.95	1086.24
736.29	1078.52
736.62	1092.09
736.95	1083.43
737.28	1079.69
737.61	1072.43
737.94	1069.86
738.28	1053.48
738.61	1064.48
738.94	1054.41
739.27	1056.52
739.60	1057.45
739.93	1065.65
740.27	1059.79
740.60	1066.11
740.93	1075.71
741.26	1073.37
741.59	1067.05
741.92	1068.22
742.25	1066.35
742.58	1054.88
742.91	1055.82
743.25	1067.75
743.58	1082.26
743.91	1081.33
744.24	1076.65
744.57	1073.84
744.90	1072.20
745.23	1067.28
745.56	1069.62
745.89	1086.48
746.22	1095.60
746.55	1085.54
746.88	1080.16
747.21	1086.71
747.54	1086.94
747.87	1081.33
748.20	1077.58
748.53	1066.82
748.87	1060.26
749.20	1050.90
749.53	1056.05
749.86	1063.77
750.19	1074.77
750.52	1075.24
750.85	1071.26
751.18	1073.84
751.51	1075.48
751.84	1069.62
752.16	1077.35
752.49	1078.99
752.82	1078.75
753.15	1082.73
753.48	1082.73
753.81	1070.09
754.14	1078.75
754.47	1070.33
754.80	1073.60
755.13	1080.39
755.46	1075.94
755.79	1076.18
756.12	1091.16
756.45	1077.82
756.78	1076.65
757.11	1095.60
757.43	1091.86
757.76	1079.92
758.09	1092.33
758.42	1088.35
758.75	1073.60
759.08	1072.90
759.41	1071.73
759.74	1067.52
760.07	1063.54
760.39	1063.77
760.72	1063.07
761.05	1064.94
761.38	1059.79
761.71	1058.86
762.04	1065.41
762.36	1067.05
762.69	1067.75
763.02	1067.99
763.35	1082.73
763.68	1082.26
764.01	1086.48
764.33	1095.14
764.66	1091.39
764.99	1091.63
765.32	1095.37
765.65	1097.95
765.97	1085.07
766.30	1095.60
766.63	1090.69
766.96	1086.24
767.28	1073.37
767.61	1075.24
767.94	1068.69
768.27	1066.35
768.59	1067.52
768.92	1074.54
769.25	1080.63
769.58	1082.97
769.90	1068.45
770.23	1072.90
770.56	1072.43
770.89	1069.62
771.21	1074.77
771.54	1086.24
771.87	1088.35
772.19	1087.65
772.52	1084.84
772.85	1072.90
773.17	1072.67
773.50	1074.77
773.83	1071.26
774.15	1064.94
774.48	1076.88
774.81	1078.75
775.13	1071.26
775.46	1075.01
775.79	1086.01
776.11	1078.75
776.44	1089.52
776.77	1095.84
777.09	1085.31
777.42	1083.67
777.74	1086.94
778.07	1072.43
778.40	1056.05
778.72	1069.39
779.05	1074.54
779.37	1077.35
779.70	1084.37
780.03	1104.73
780.35	1104.50
780.68	1098.88
781.00	1090.69
781.33	1079.46
781.65	1071.03
781.98	1058.39
782.31	1060.50
782.63	1072.67
782.96	1078.52
783.28	1083.67
783.61	1091.63
783.93	1081.33
784.26	1065.88
784.58	1067.05
784.91	1060.96
785.23	1070.09
785.56	1088.35
785.88	1091.63
786.21	1086.24
786.53	1092.56
786.86	1087.88
787.18	1081.33
787.51	1084.84
787.83	1088.82
788.16	1081.80
788.48	1076.88
788.81	1072.90
789.13	1073.14
789.46	1077.11
789.78	1087.41
790.10	1089.75
790.43	1091.63
790.75	1085.07
791.08	1085.54
791.40	1079.69
791.73	1081.80
792.05	1076.18
792.37	1078.52
792.70	1073.14
793.02	1074.54
793.35	1067.05
793.67	1071.50
793.99	1073.60
794.32	1083.20
794.64	1082.97
794.96	1086.24
795.29	1086.94
795.61	1087.18
795.93	1079.22
796.26	1074.54
796.58	1078.99
796.91	1076.18
797.23	1079.22
797.55	1082.73
797.87	1078.28
798.20	1073.14
798.52	1071.97
798.84	1082.03
799.17	1074.54
799.49	1081.09
799.81	1091.16
800.14	1088.12
800.46	1071.50
800.78	1071.03
801.10	1074.54
801.43	1068.22
801.75	1069.39
802.07	1076.65
802.40	1080.39
802.72	1080.86
803.04	1085.07
803.36	1096.07
803.69	1098.65
804.01	1099.12
804.33	1094.20
804.65	1086.24
804.97	1078.52
805.30	1077.58
805.62	1084.14
805.94	1082.03
806.26	1090.46
806.58	1090.22
806.91	1085.77
807.23	1076.41
807.55	1070.80
807.87	1066.35
808.19	1062.84
808.52	1069.39
808.84	1076.65
809.16	1077.11
809.48	1080.86
809.80	1088.35
810.12	1091.39
810.44	1095.37
810.77	1100.05
811.09	1088.82
811.41	1086.48
811.73	1083.90
812.05	1078.52
812.37	1069.62
812.69	1068.69
813.01	1064.94
813.33	1069.39
813.66	1073.14
813.98	1088.12
814.30	1090.22
814.62	1089.29
814.94	1088.82
815.26	1084.84
815.58	1077.82
815.90	1078.52
816.22	1085.54
816.54	1065.88
816.86	1073.84
817.18	1076.41
817.50	1078.05
817.82	1076.41
818.14	1088.58
818.46	1080.63
818.78	1087.18
819.10	1089.05
819.42	1086.71
819.74	1086.71
820.06	1084.37
820.38	1071.26
820.70	1075.71
821.02	1082.97
821.34	1087.88
821.66	1086.71
821.98	1087.41
822.30	1085.07
822.62	1076.41
822.94	1073.14
823.26	1078.99
823.58	1078.75
823.90	1077.35
824.22	1076.65
824.54	1071.73
824.86	1073.84
825.18	1082.73
825.50	1089.29
825.81	1096.54
826.13	1091.63
826.45	1086.01
826.77	1082.97
827.09	1074.54
827.41	1074.77
827.73	1078.75
828.05	1076.65
828.36	1079.22
828.68	1083.90
829.00	1080.86
829.32	1082.26
829.64	1086.94
829.96	1088.82
830.28	1086.94
830.59	1091.63
830.91	1097.24
831.23	1101.69
831.55	1103.09
831.87	1103.09
832.19	1106.61
832.50	1093.97
832.82	1091.16
833.14	1083.43
833.46	1081.09
833.78	1075.94
834.09	1084.14
834.41	1083.67
834.73	1084.84
835.05	1089.29
835.36	1087.88
835.68	1085.77
836.00	1081.09
836.32	1089.75
836.63	1089.52
836.95	1083.67
837.27	1085.31
837.59	1087.65
837.90	1079.46
838.22	1069.86
838.54	1075.01
838.85	1076.18
839.17	1082.03
839.49	1080.86
839.80	1091.39
840.12	1086.01
840.44	1095.37
840.76	1088.12
841.07	1092.80
841.39	1082.26
841.71	1083.43
842.02	1070.33
842.34	1070.80
842.65	1074.31
842.97	1078.99
843.29	1074.77
843.60	1074.77
843.92	1074.54
844.24	1056.75
844.55	1062.60
844.87	1077.11
845.18	1071.73
845.50	1071.50
845.82	1082.97
846.13	1079.92
846.45	1072.67
846.76	1087.41
847.08	1088.58
847.40	1089.29
847.71	1087.18
848.03	1084.84
848.34	1076.88
848.66	1081.56
848.97	1072.90
849.29	1083.43
849.60	1082.73
849.92	1093.50
850.24	1086.71
850.55	1095.37
850.87	1085.31
851.18	1086.71
851.50	1077.35
851.81	1081.09
852.13	1084.60
852.44	1083.67
852.76	1084.37
853.07	1086.48
853.39	1084.14
853.70	1077.11
854.01	1078.28
854.33	1078.75
854.64	1072.90
854.96	1072.90
855.27	1075.24
855.59	1078.28
855.90	1085.07
856.22	1087.88
856.53	1083.43
856.84	1081.56
857.16	1077.35
857.47	1072.43
857.79	1079.46
858.10	1083.43
858.41	1085.54
858.73	1089.75
859.04	1085.77
859.36	1084.37
859.67	1088.58
859.98	1084.84
860.30	1083.90
860.61	1087.88
860.92	1072.43
861.24	1069.86
861.55	1070.56
861.87	1061.67
862.18	1056.05
862.49	1059.09
862.81	1062.84
863.12	1059.33
863.43	1059.33
863.74	1061.67
864.06	1068.69
864.37	1066.58
864.68	1074.77
865.00	1085.07
865.31	1080.16
865.62	1073.37
865.94	1068.22
866.25	1067.28
866.56	1062.60
866.87	1070.56
867.19	1078.52
867.50	1078.75
867.81	1077.82
868.12	1084.37
868.44	1080.16
868.75	1088.12
869.06	1089.99
869.37	1088.35
869.68	1086.94
870.00	1101.22
870.31	1092.80
870.62	1096.54
870.93	1096.78
871.24	1100.99
871.56	1089.52
871.87	1087.88
872.18	1085.31
872.49	1079.92
872.80	1064.71
873.12	1059.09
873.43	1060.26
873.74	1059.09
874.05	1067.05
874.36	1083.67
874.67	1091.63
874.98	1090.92
875.29	1088.12
875.61	1087.41
875.92	1078.75
876.23	1072.20
876.54	1072.43
876.85	1074.31
877.16	1074.77
877.47	1069.39
877.78	1071.97
878.09	1071.50
878.40	1071.50
878.72	1065.65
879.03	1073.60
879.34	1076.18
879.65	1075.48
879.96	1077.35
880.27	1075.71
880.58	1074.77
880.89	1072.20
881.20	1071.50
881.51	1073.37
881.82	1079.22
882.13	1076.65
882.44	1074.31
882.75	1084.84
883.06	1089.05
883.37	1087.18
883.68	1085.54
883.99	1092.56
884.30	1086.48
884.61	1076.18
884.92	1079.22
885.23	1079.46
885.54	1078.99
885.85	1091.39
886.16	1092.09
886.47	1087.88
886.78	1095.60
887.08	1096.07
887.39	1081.09
887.70	1082.50
888.01	1081.56
888.32	1077.35
888.63	1079.46
888.94	1077.35
889.25	1082.26
889.56	1089.52
889.87	1084.84
890.17	1077.11
890.48	1079.22
890.79	1073.14
891.10	1068.22
891.41	1078.75
891.72	1081.09
892.03	1084.14
892.34	1088.58
892.64	1092.09
892.95	1096.54
893.26	1087.65
893.57	1086.48
893.88	1092.56
894.18	1101.46
894.49	1094.67
894.80	1104.03
895.11	1110.82
895.42	1110.58
895.72	1096.31
896.03	1096.54
896.34	1091.39
896.65	1078.28
896.96	1075.94
897.26	1076.41
897.57	1066.58
897.88	1071.03
898.19	1066.82
898.49	1067.52
898.80	1070.80
899.11	1075.94
899.41	1078.28
899.72	1087.41
900.03	1075.24
900.34	1071.50
900.64	1062.60
900.95	1060.26
901.26	1060.73
901.56	1069.39
901.87	1077.82
902.18	1090.22
902.48	1094.43
902.79	1089.52
903.10	1090.92
903.40	1096.54
903.71	1090.22
904.02	1082.03
904.32	1088.12
904.63	1091.86
904.94	1089.05
905.24	1091.86
905.55	1091.86
905.85	1085.54
906.16	1085.77
906.47	1082.97
906.77	1082.73
907.08	1090.92
907.38	1098.18
907.69	1088.82
908.00	1091.63
908.30	1091.16
908.61	1086.71
908.91	1083.20
909.22	1086.48
909.52	1075.01
909.83	1086.94
910.14	1088.82
910.44	1085.07
910.75	1082.26
911.05	1086.71
911.36	1077.58
911.66	1078.05
911.97	1086.94
912.27	1098.18
912.58	1097.24
912.88	1098.41
913.19	1090.69
913.49	1088.58
913.80	1078.75
914.10	1071.03
914.41	1063.31
914.71	1071.97
915.01	1066.82
915.32	1057.45
915.62	1064.94
915.93	1073.37
916.23	1073.37
916.54	1070.33
916.84	1086.24
917.15	1094.20
917.45	1091.16
917.75	1083.43
918.06	1080.63
918.36	1069.62
918.67	1067.75
918.97	1068.69
919.27	1067.99
919.58	1073.84
919.88	1083.20
920.18	1074.07
920.49	1078.05
920.79	1082.50
921.10	1091.86
921.40	1082.03
921.70	1094.43
922.01	1085.77
922.31	1081.56
922.61	1074.54
922.92	1078.75
923.22	1075.24
923.52	1079.69
923.82	1076.88
924.13	1071.73
924.43	1066.58
924.73	1056.75
925.04	1043.41
925.34	1049.50
925.64	1061.90
925.94	1061.67
926.25	1064.71
926.55	1073.84
926.85	1075.24
927.15	1062.14
927.46	1061.20
927.76	1062.14
928.06	1062.84
928.36	1057.22
928.67	1066.35
928.97	1068.45
929.27	1062.37
929.57	1065.65
929.87	1074.07
930.18	1076.65
930.48	1091.63
930.78	1093.50
931.08	1093.73
931.38	1094.90
931.69	1088.58
931.99	1076.65
932.29	1081.80
932.59	1076.41
932.89	1080.16
933.19	1082.97
933.49	1092.80
933.80	1097.71
934.10	1101.69
934.40	1095.84
934.70	1085.31
935.00	1075.48
935.30	1066.35
935.60	1055.82
935.90	1050.20
936.20	1055.58
936.50	1059.09
936.81	1056.52
937.11	1065.18
937.41	1074.07
937.71	1083.90
938.01	1081.80
938.31	1087.65
938.61	1090.69
938.91	1099.35
939.21	1095.37
939.51	1089.75
939.81	1086.71
940.11	1081.33
940.41	1067.28
940.71	1058.39
941.01	1058.39
941.31	1057.69
941.61	1073.60
941.91	1071.50
942.21	1080.86
942.51	1092.33
942.81	1100.75
943.11	1085.54
943.41	1087.88
943.71	1091.39
944.01	1085.54
944.31	1082.73
944.61	1092.56
944.90	1100.05
945.20	1086.94
945.50	1091.16
945.80	1092.56
946.10	1091.63
946.40	1083.20
946.70	1080.39
947.00	1070.56
947.30	1069.62
947.60	1070.56
947.89	1074.77
948.19	1080.16
948.49	1088.12
948.79	1087.18
949.09	1080.63
949.39	1081.33
949.69	1081.80
949.98	1073.84
950.28	1064.94
950.58	1052.77
950.88	1053.01
951.18	1049.03
951.48	1050.20
951.77	1061.20
952.07	1079.69
952.37	1081.80
952.67	1088.82
952.97	1095.14
953.26	1087.18
953.56	1075.24
953.86	1071.97
954.16	1074.07
954.45	1073.37
954.75	1075.94
955.05	1079.22
955.35	1069.16
955.64	1066.58
955.94	1067.28
956.24	1064.94
956.54	1062.60
956.83	1069.86
957.13	1075.48
957.43	1080.86
957.72	1081.33
958.02	1088.12
958.32	1089.75
958.61	1083.90
958.91	1076.41
959.21	1087.41
959.50	1088.58
959.80	1094.90
960.10	1097.95
960.39	1096.78
960.69	1087.65
960.99	1081.33
961.28	1073.60
961.58	1077.58
961.87	1071.26
962.17	1071.73
962.47	1078.28
962.76	1076.88
963.06	1068.22
963.36	1083.90
963.65	1075.01
963.95	1077.58
964.24	1076.88
964.54	1084.37
964.83	1082.73
965.13	1091.39
965.42	1087.18
965.72	1094.67
966.02	1091.16
966.31	1084.60
966.61	1085.54
966.90	1082.73
967.20	1071.73
967.49	1077.11
967.79	1072.90
968.08	1071.50
968.38	1065.18
968.67	1074.07
968.97	1064.94
969.26	1073.37
969.56	1079.92
969.85	1082.97
970.15	1088.12
970.44	1088.12
970.74	1088.35
971.03	1088.35
971.32	1096.31
971.62	1088.35
971.91	1089.52
972.21	1089.99
972.50	1090.46
972.80	1085.31
973.09	1092.80
973.38	1090.69
973.68	1096.78
973.97	1095.37
974.27	1098.88
974.56	1098.18
974.85	1100.75
975.15	1087.18
975.44	1083.20
975.73	1088.35
976.03	1083.90
976.32	1082.50
976.61	1079.22
976.91	1073.37
977.20	1066.82
977.49	1066.82
977.79	1069.86
978.08	1074.77
978.37	1088.12
978.67	1092.09
978.96	1087.88
979.25	1090.22
979.55	1089.29
979.84	1077.11
980.13	1069.16
980.42	1073.37
980.72	1073.60
981.01	1077.82
981.30	1084.14
981.59	1088.35
981.89	1082.73
982.18	1080.86
982.47	1081.80
982.76	1079.92
983.06	1073.60
983.35	1075.94
983.64	1079.69
983.93	1075.94
984.22	1079.22
984.52	1089.29
984.81	1092.56
985.10	1093.97
985.39	1093.73
985.68	1093.73
985.97	1093.97
986.27	1097.71
986.56	1089.75
986.85	1096.54
987.14	1086.71
987.43	1071.73
987.72	1067.52
988.01	1059.09
988.31	1045.99
988.60	1054.88
988.89	1059.79
989.18	1066.35
989.47	1076.88
989.76	1088.12
990.05	1091.16
990.34	1097.48
990.63	1093.73
990.92	1088.35
991.21	1087.88
991.51	1086.48
991.80	1088.82
992.09	1086.48
992.38	1086.48
992.67	1074.54
992.96	1066.58
993.25	1060.96
993.54	1059.33
993.83	1065.18
994.12	1078.52
994.41	1082.26
994.70	1090.69
994.99	1095.14
995.28	1096.78
995.57	1082.03
995.86	1083.90
996.15	1078.52
996.44	1071.97
996.73	1065.18
997.02	1078.99
997.31	1090.46
997.59	1089.52
997.88	1086.01
998.17	1090.69
998.46	1091.63
998.75	1082.26
999.04	1086.01
999.33	1090.69
999.62	1094.43
999.91	1093.03
1000.20	1089.29
1000.49	1076.41
1000.77	1075.71
1001.06	1068.22
1001.35	1066.35
1001.64	1071.73
1001.93	1083.20
1002.22	1093.73
1002.51	1102.63
1002.79	1102.86
1003.08	1101.22
1003.37	1106.61
1003.66	1099.35
1003.95	1105.44
1004.23	1108.24
1004.52	1108.24
1004.81	1103.33
1005.10	1102.16
1005.39	1089.52
1005.67	1086.94
1005.96	1091.63
1006.25	1087.41
1006.54	1084.84
1006.83	1089.75
1007.11	1092.33
1007.40	1089.99
1007.69	1094.90
1007.97	1085.77
1008.26	1094.43
1008.55	1094.67
1008.84	1095.14
1009.12	1093.73
1009.41	1104.26
1009.70	1086.71
1009.98	1083.20
1010.27	1080.86
1010.56	1076.41
1010.85	1078.28
1011.13	1079.22
1011.42	1076.18
1011.71	1070.33
1011.99	1066.58
1012.28	1062.84
1012.56	1066.11
1012.85	1065.41
1013.14	1071.97
1013.42	1070.09
1013.71	1070.09
1014.00	1071.03
1014.28	1074.31
1014.57	1071.26
1014.85	1076.41
1015.14	1086.01
1015.43	1085.54
1015.71	1088.58
1016.00	1092.33
1016.28	1097.24
1016.57	1091.86
1016.85	1089.05
1017.14	1089.52
1017.43	1084.37
1017.71	1078.52
1018.00	1075.01
1018.28	1072.20
1018.57	1063.07
1018.85	1060.96
1019.14	1057.45
1019.42	1055.82
1019.71	1064.24
1019.99	1068.69
1020.28	1075.01
1020.56	1085.07
1020.85	1088.58
1021.13	1087.65
1021.42	1092.09
1021.70	1086.24
1021.99	1082.73
1022.27	1086.71
1022.55	1077.82
1022.84	1101.22
>>>>>End Processed Spectral Data<<<<<
