SpectraSuite Data File
++++++++++++++++++++++++++++++++++++
Date: Mon Aug 26 10:25:52 PDT 2019
User: corrico
Dark Spectrum Present: No
Reference Spectrum Present: No
Number of Sampled Component Spectra: 1
Spectrometers: USB2+H06089
Integration Time (usec): 10000 (USB2+H06089)
Spectra Averaged: 2 (USB2+H06089)
Boxcar Smoothing: 2 (USB2+H06089)
Correct for Electrical Dark: No (USB2+H06089)
Strobe/Lamp Enabled: No (USB2+H06089)
Correct for Detector Non-linearity: No (USB2+H06089)
Correct for Stray Light: No (USB2+H06089)
Number of Pixels in Processed Spectrum: 2048
>>>>>Begin Processed Spectral Data<<<<<
339.70	1015.79
340.07	1015.79
340.45	993.32
340.82	977.64
341.19	958.92
341.57	937.85
341.94	929.89
342.31	912.81
342.69	907.43
343.06	903.21
343.43	899.47
343.81	903.45
344.18	909.53
344.55	915.62
344.93	928.72
345.30	937.62
345.67	946.28
346.04	958.45
346.42	969.22
346.79	966.88
347.16	975.30
347.54	981.62
347.91	987.24
348.28	991.92
348.65	989.58
349.03	1000.81
349.40	997.54
349.77	992.39
350.14	998.24
350.52	1022.35
350.89	1027.26
351.26	1038.03
351.63	1054.41
352.01	1049.03
352.38	1048.09
352.75	1056.75
353.12	1062.37
353.50	1064.48
353.87	1067.99
354.24	1069.16
354.61	1069.16
354.98	1072.20
355.36	1078.05
355.73	1090.69
356.10	1098.18
356.47	1093.26
356.84	1089.29
357.22	1088.82
357.59	1080.39
357.96	1080.39
358.33	1082.50
358.70	1088.35
359.08	1087.41
359.45	1089.05
359.82	1089.75
360.19	1090.92
360.56	1086.24
360.94	1082.03
361.31	1089.52
361.68	1079.46
362.05	1071.97
362.42	1077.35
362.79	1081.09
363.16	1078.99
363.54	1084.60
363.91	1087.18
364.28	1077.58
364.65	1074.07
365.02	1067.28
365.39	1071.73
365.76	1072.67
366.14	1078.99
366.51	1081.80
366.88	1074.54
367.25	1066.35
367.62	1054.88
367.99	1058.62
368.36	1057.22
368.73	1066.58
369.10	1071.03
369.48	1082.97
369.85	1070.09
370.22	1078.99
370.59	1079.46
370.96	1074.54
371.33	1071.50
371.70	1079.92
372.07	1065.88
372.44	1059.79
372.81	1062.14
373.18	1057.45
373.55	1056.05
373.93	1053.01
374.30	1058.39
374.67	1059.79
375.04	1068.92
375.41	1074.77
375.78	1076.65
376.15	1079.69
376.52	1074.31
376.89	1075.71
377.26	1075.71
377.63	1078.05
378.00	1071.73
378.37	1075.71
378.74	1069.39
379.11	1065.65
379.48	1072.90
379.85	1071.73
380.22	1075.01
380.59	1077.35
380.96	1072.67
381.33	1074.07
381.70	1075.48
382.07	1068.45
382.44	1069.16
382.81	1067.75
383.18	1055.35
383.55	1049.03
383.92	1055.11
384.29	1058.39
384.66	1071.03
385.03	1078.52
385.40	1087.18
385.77	1083.90
386.14	1083.20
386.51	1079.69
386.88	1074.54
387.25	1081.56
387.62	1085.54
387.99	1082.03
388.36	1081.33
388.73	1088.58
389.10	1082.97
389.46	1083.90
389.83	1084.84
390.20	1088.35
390.57	1086.24
390.94	1092.80
391.31	1077.11
391.68	1078.28
392.05	1070.56
392.42	1062.84
392.79	1062.37
393.16	1074.77
393.53	1067.05
393.89	1063.31
394.26	1063.31
394.63	1059.33
395.00	1058.39
395.37	1070.09
395.74	1072.20
396.11	1069.86
396.48	1060.50
396.84	1066.11
397.21	1056.52
397.58	1074.54
397.95	1078.52
398.32	1086.01
398.69	1078.28
399.06	1088.58
399.42	1072.20
399.79	1075.48
400.16	1075.01
400.53	1069.39
400.90	1070.80
401.27	1065.88
401.64	1069.86
402.00	1069.62
402.37	1076.65
402.74	1071.73
403.11	1075.24
403.48	1065.18
403.84	1071.50
404.21	1080.39
404.58	1071.97
404.95	1069.86
405.32	1074.54
405.68	1071.26
406.05	1061.90
406.42	1074.54
406.79	1077.11
407.16	1078.05
407.52	1074.31
407.89	1074.07
408.26	1074.77
408.63	1086.94
408.99	1083.20
409.36	1085.54
409.73	1082.73
410.10	1076.65
410.47	1065.41
410.83	1064.48
411.20	1067.28
411.57	1065.65
411.94	1063.77
412.30	1060.26
412.67	1068.69
413.04	1062.37
413.40	1061.43
413.77	1056.05
414.14	1062.14
414.51	1061.20
414.87	1061.90
415.24	1060.96
415.61	1064.48
415.97	1064.48
416.34	1068.69
416.71	1061.43
417.08	1061.20
417.44	1059.56
417.81	1050.67
418.18	1048.79
418.54	1050.67
418.91	1062.84
419.28	1072.20
419.64	1082.50
420.01	1085.07
420.38	1094.90
420.74	1095.37
421.11	1089.75
421.48	1093.97
421.84	1082.97
422.21	1082.26
422.58	1076.88
422.94	1084.84
423.31	1081.80
423.68	1087.18
424.04	1082.97
424.41	1077.58
424.77	1064.71
425.14	1064.48
425.51	1067.28
425.87	1067.05
426.24	1076.18
426.61	1081.09
426.97	1077.58
427.34	1072.20
427.70	1079.46
428.07	1075.24
428.44	1080.39
428.80	1086.24
429.17	1082.50
429.53	1078.05
429.90	1074.54
430.27	1067.52
430.63	1071.73
431.00	1074.54
431.36	1070.80
431.73	1075.01
432.09	1084.37
432.46	1074.54
432.83	1080.39
433.19	1087.65
433.56	1087.18
433.92	1086.48
434.29	1085.31
434.65	1086.24
435.02	1080.63
435.38	1082.26
435.75	1068.45
436.11	1070.56
436.48	1060.03
436.84	1061.20
437.21	1066.35
437.57	1072.90
437.94	1074.54
438.30	1082.03
438.67	1089.99
439.03	1085.07
439.40	1082.50
439.76	1085.31
440.13	1079.69
440.49	1065.41
440.86	1067.99
441.22	1074.54
441.59	1064.94
441.95	1082.97
442.32	1095.84
442.68	1093.03
443.05	1093.03
443.41	1095.37
443.78	1075.01
444.14	1067.05
444.51	1065.18
444.87	1066.82
445.24	1069.86
445.60	1079.22
445.96	1084.14
446.33	1089.05
446.69	1077.82
447.06	1079.46
447.42	1079.92
447.79	1071.03
448.15	1071.03
448.51	1079.22
448.88	1085.07
449.24	1086.94
449.61	1101.69
449.97	1100.75
450.33	1105.20
450.70	1098.65
451.06	1099.12
451.43	1087.41
451.79	1090.46
452.15	1084.14
452.52	1082.03
452.88	1076.88
453.24	1075.94
453.61	1074.07
453.97	1084.60
454.34	1075.94
454.70	1075.01
455.06	1091.39
455.43	1081.80
455.79	1074.54
456.15	1090.46
456.52	1092.56
456.88	1071.26
457.24	1077.82
457.61	1080.16
457.97	1068.92
458.33	1070.33
458.70	1086.94
459.06	1089.99
459.42	1082.26
459.79	1078.99
460.15	1067.52
460.51	1062.14
460.88	1060.50
461.24	1068.69
461.60	1073.84
461.96	1082.50
462.33	1080.39
462.69	1086.01
463.05	1080.86
463.42	1083.90
463.78	1089.29
464.14	1086.48
464.50	1082.73
464.87	1089.75
465.23	1091.86
465.59	1084.37
465.95	1086.24
466.32	1080.86
466.68	1076.65
467.04	1075.24
467.40	1067.28
467.77	1060.26
468.13	1055.35
468.49	1047.39
468.85	1050.67
469.22	1059.79
469.58	1071.73
469.94	1076.65
470.30	1082.73
470.66	1065.88
471.03	1072.20
471.39	1063.77
471.75	1068.45
472.11	1068.69
472.47	1077.11
472.84	1080.63
473.20	1086.94
473.56	1078.99
473.92	1076.88
474.28	1084.84
474.65	1078.99
475.01	1075.48
475.37	1080.39
475.73	1087.41
476.09	1080.39
476.45	1077.58
476.81	1073.37
477.18	1063.77
477.54	1070.80
477.90	1077.35
478.26	1079.46
478.62	1083.43
478.98	1090.69
479.34	1077.35
479.71	1078.52
480.07	1083.67
480.43	1089.29
480.79	1089.52
481.15	1096.54
481.51	1093.73
481.87	1086.48
482.23	1084.14
482.59	1082.26
482.96	1076.65
483.32	1083.20
483.68	1085.54
484.04	1080.16
484.40	1096.07
484.76	1089.99
485.12	1086.94
485.48	1084.60
485.84	1091.63
486.20	1079.69
486.56	1088.12
486.92	1075.24
487.28	1081.33
487.64	1081.09
488.00	1083.67
488.37	1079.22
488.73	1086.48
489.09	1083.20
489.45	1072.67
489.81	1066.11
490.17	1075.94
490.53	1072.90
490.89	1075.71
491.25	1083.20
491.61	1083.90
491.97	1075.01
492.33	1081.56
492.69	1071.26
493.05	1082.73
493.41	1084.60
493.77	1084.37
494.13	1079.69
494.49	1082.73
494.85	1073.37
495.21	1080.63
495.57	1083.67
495.93	1083.90
496.29	1091.86
496.64	1090.22
497.00	1076.65
497.36	1075.01
497.72	1075.71
498.08	1075.71
498.44	1074.31
498.80	1075.71
499.16	1069.62
499.52	1077.58
499.88	1072.20
500.24	1076.88
500.60	1086.94
500.96	1089.29
501.32	1086.01
501.68	1092.56
502.03	1092.09
502.39	1081.80
502.75	1081.09
503.11	1081.33
503.47	1073.14
503.83	1069.86
504.19	1072.67
504.55	1067.75
504.91	1063.31
505.26	1065.41
505.62	1059.09
505.98	1066.35
506.34	1080.63
506.70	1085.07
507.06	1086.71
507.42	1095.84
507.78	1102.63
508.13	1104.03
508.49	1107.54
508.85	1101.22
509.21	1107.78
509.57	1102.63
509.93	1095.84
510.28	1077.82
510.64	1074.54
511.00	1066.11
511.36	1062.14
511.72	1061.67
512.07	1076.65
512.43	1076.18
512.79	1071.26
513.15	1072.43
513.51	1071.03
513.86	1060.50
514.22	1075.01
514.58	1076.18
514.94	1086.48
515.30	1086.48
515.65	1101.46
516.01	1100.99
516.37	1109.65
516.73	1102.63
517.08	1111.05
517.44	1107.54
517.80	1099.82
518.16	1097.48
518.51	1097.71
518.87	1097.48
519.23	1092.09
519.59	1091.16
519.94	1092.80
520.30	1097.24
520.66	1099.82
521.01	1103.33
521.37	1111.52
521.73	1114.56
522.09	1105.67
522.44	1094.67
522.80	1090.92
523.16	1086.01
523.51	1078.05
523.87	1082.26
524.23	1097.48
524.58	1098.88
524.94	1095.84
525.30	1100.75
525.65	1105.67
526.01	1104.73
526.37	1094.90
526.72	1103.33
527.08	1105.67
527.44	1096.54
527.79	1088.12
528.15	1104.50
528.51	1101.92
528.86	1101.92
529.22	1103.80
529.58	1092.80
529.93	1089.52
530.29	1091.63
530.65	1082.26
531.00	1078.52
531.36	1095.37
531.71	1100.52
532.07	1106.37
532.43	1117.14
532.78	1117.14
533.14	1118.54
533.49	1119.71
533.85	1109.18
534.21	1101.46
534.56	1108.01
534.92	1100.99
535.27	1090.22
535.63	1096.78
535.98	1096.31
536.34	1096.31
536.69	1102.86
537.05	1104.97
537.41	1106.84
537.76	1115.73
538.12	1103.56
538.47	1096.07
538.83	1096.07
539.18	1084.14
539.54	1078.28
539.89	1080.86
540.25	1080.86
540.60	1085.54
540.96	1095.60
541.31	1088.58
541.67	1099.12
542.02	1097.71
542.38	1082.03
542.73	1077.82
543.09	1082.26
543.44	1081.80
543.80	1078.52
544.15	1087.18
544.51	1081.56
544.86	1079.22
545.22	1082.50
545.57	1096.78
545.93	1100.52
546.28	1102.63
546.64	1111.75
546.99	1103.33
547.35	1092.09
547.70	1089.75
548.05	1092.56
548.41	1090.46
548.76	1083.67
549.12	1078.75
549.47	1083.20
549.83	1083.67
550.18	1080.16
550.53	1082.97
550.89	1090.92
551.24	1086.24
551.60	1083.43
551.95	1077.35
552.30	1085.77
552.66	1090.22
553.01	1085.54
553.37	1083.67
553.72	1072.67
554.07	1067.28
554.43	1055.82
554.78	1061.43
555.13	1061.90
555.49	1081.09
555.84	1089.29
556.19	1094.67
556.55	1096.07
556.90	1097.24
557.26	1088.35
557.61	1085.07
557.96	1089.75
558.32	1085.07
558.67	1086.48
559.02	1093.03
559.37	1079.22
559.73	1069.86
560.08	1071.73
560.43	1077.82
560.79	1082.97
561.14	1101.46
561.49	1103.56
561.85	1103.56
562.20	1091.16
562.55	1085.54
562.90	1069.62
563.26	1057.69
563.61	1058.16
563.96	1062.84
564.32	1060.96
564.67	1071.73
565.02	1077.11
565.37	1063.31
565.73	1060.96
566.08	1055.82
566.43	1053.48
566.78	1057.69
567.14	1072.90
567.49	1071.50
567.84	1074.54
568.19	1071.03
568.54	1077.35
568.90	1074.31
569.25	1082.26
569.60	1089.75
569.95	1092.33
570.31	1077.35
570.66	1078.28
571.01	1081.56
571.36	1079.22
571.71	1075.24
572.06	1083.67
572.42	1078.28
572.77	1071.50
573.12	1060.03
573.47	1058.62
573.82	1055.58
574.18	1052.54
574.53	1045.99
574.88	1054.18
575.23	1066.58
575.58	1067.99
575.93	1072.20
576.28	1073.37
576.64	1070.80
576.99	1065.41
577.34	1076.18
577.69	1079.92
578.04	1082.50
578.39	1090.22
578.74	1079.69
579.09	1063.31
579.44	1060.73
579.80	1062.14
580.15	1057.92
580.50	1077.11
580.85	1085.07
581.20	1087.65
581.55	1085.54
581.90	1090.69
582.25	1076.65
582.60	1075.71
582.95	1067.99
583.30	1068.22
583.65	1060.50
584.00	1069.86
584.35	1081.56
584.71	1089.05
585.06	1090.22
585.41	1090.22
585.76	1087.41
586.11	1074.07
586.46	1075.48
586.81	1067.28
587.16	1071.03
587.51	1076.65
587.86	1082.97
588.21	1076.65
588.56	1090.69
588.91	1088.58
589.26	1074.31
589.61	1077.11
589.96	1085.07
590.31	1088.58
590.66	1088.12
591.01	1094.43
591.36	1093.50
591.71	1097.01
592.06	1097.71
592.41	1102.86
592.76	1105.20
593.10	1107.78
593.45	1105.44
593.80	1096.31
594.15	1088.12
594.50	1092.80
594.85	1080.16
595.20	1080.16
595.55	1079.92
595.90	1076.18
596.25	1061.43
596.60	1060.73
596.95	1049.96
597.30	1053.01
597.64	1115.50
597.99	1129.54
598.34	1141.48
598.69	1144.05
599.04	1142.65
599.39	1088.12
599.74	1078.75
600.09	1067.99
600.44	1073.84
600.78	1079.69
601.13	1080.16
601.48	1077.35
601.83	1078.52
602.18	1076.18
602.53	1069.39
602.88	1071.97
603.22	1083.43
603.57	1081.56
603.92	1092.09
604.27	1090.69
604.62	1082.03
604.97	1081.09
605.31	1084.84
605.66	1075.94
606.01	1078.75
606.36	1089.29
606.71	1083.43
607.05	1093.50
607.40	1082.73
607.75	1087.65
608.10	1081.09
608.44	1082.26
608.79	1072.20
609.14	1099.58
609.49	1098.18
609.84	1113.16
610.18	1114.09
610.53	1118.31
610.88	1102.39
611.23	1096.54
611.57	1087.18
611.92	1090.69
612.27	1086.24
612.62	1085.31
612.96	1086.71
613.31	1083.20
613.66	1079.92
614.00	1092.09
614.35	1091.86
614.70	1095.84
615.05	1092.09
615.39	1078.28
615.74	1068.22
616.09	1063.31
616.43	1059.79
616.78	1058.86
617.13	1066.35
617.47	1062.37
617.82	1061.90
618.17	1065.18
618.51	1074.07
618.86	1077.35
619.21	1081.80
619.55	1080.39
619.90	1079.92
620.25	1080.63
620.59	1085.07
620.94	1081.09
621.29	1085.31
621.63	1084.14
621.98	1075.94
622.32	1072.90
622.67	1070.09
623.02	1072.20
623.36	1065.88
623.71	1066.58
624.05	1070.56
624.40	1071.26
624.75	1066.11
625.09	1074.07
625.44	1086.48
625.78	1082.50
626.13	1092.09
626.48	1104.26
626.82	1103.80
627.17	1095.14
627.51	1094.90
627.86	1086.01
628.20	1078.75
628.55	1074.07
628.89	1067.52
629.24	1070.09
629.58	1076.65
629.93	1080.63
630.28	1078.99
630.62	1090.92
630.97	1084.37
631.31	1085.31
631.66	1081.33
632.00	1081.80
632.35	1068.69
632.69	1070.56
633.04	1069.86
633.38	1070.33
633.73	1077.82
634.07	1087.41
634.42	1097.01
634.76	1090.46
635.11	1088.35
635.45	1075.24
635.79	1075.24
636.14	1065.41
636.48	1068.69
636.83	1078.28
637.17	1092.09
637.52	1087.18
637.86	1094.90
638.21	1091.63
638.55	1077.82
638.89	1077.11
639.24	1082.50
639.58	1074.54
639.93	1083.20
640.27	1090.92
640.61	1083.20
640.96	1089.29
641.30	1093.73
641.65	1087.41
641.99	1083.90
642.33	1076.88
642.68	1071.03
643.02	1076.18
643.37	1073.84
643.71	1079.69
644.05	1087.88
644.40	1079.69
644.74	1073.37
645.08	1080.16
645.43	1076.18
645.77	1076.88
646.11	1082.73
646.46	1073.60
646.80	1064.48
647.14	1063.31
647.49	1064.24
647.83	1074.31
648.17	1074.31
648.52	1086.48
648.86	1085.07
649.20	1084.37
649.55	1070.80
649.89	1070.09
650.23	1066.58
650.57	1068.69
650.92	1065.88
651.26	1074.77
651.60	1072.67
651.95	1078.52
652.29	1083.43
652.63	1093.50
652.97	1083.20
653.32	1089.29
653.66	1082.50
654.00	1065.88
654.34	1057.92
654.69	1063.31
655.03	1069.39
655.37	1069.16
655.71	1077.35
656.05	1067.99
656.40	1059.56
656.74	1065.88
657.08	1070.56
657.42	1073.37
657.76	1086.24
658.11	1087.88
658.45	1068.92
658.79	1063.31
659.13	1066.11
659.47	1065.88
659.82	1068.92
660.16	1080.39
660.50	1075.71
660.84	1078.28
661.18	1072.90
661.52	1081.56
661.87	1078.52
662.21	1087.41
662.55	1082.50
662.89	1091.86
663.23	1087.88
663.57	1094.67
663.91	1090.22
664.25	1087.88
664.60	1089.05
664.94	1087.65
665.28	1078.05
665.62	1073.60
665.96	1075.94
666.30	1060.26
666.64	1063.54
666.98	1076.18
667.32	1082.97
667.66	1084.37
668.01	1102.16
668.35	1092.09
668.69	1089.75
669.03	1079.69
669.37	1086.48
669.71	1078.05
670.05	1082.50
670.39	1081.80
670.73	1093.73
671.07	1086.24
671.41	1092.33
671.75	1091.39
672.09	1084.84
672.43	1084.14
672.77	1088.58
673.11	1082.50
673.45	1085.07
673.79	1091.63
674.13	1090.22
674.47	1086.48
674.81	1090.69
675.15	1090.69
675.49	1089.29
675.83	1085.07
676.17	1081.56
676.51	1075.48
676.85	1080.39
677.19	1081.09
677.53	1077.11
677.87	1081.33
678.21	1081.56
678.55	1080.86
678.89	1083.43
679.23	1095.37
679.57	1099.82
679.90	1104.73
680.24	1098.65
680.58	1090.22
680.92	1087.18
681.26	1080.39
681.60	1079.92
681.94	1075.48
682.28	1074.31
682.62	1078.52
682.96	1081.80
683.29	1077.35
683.63	1081.80
683.97	1087.65
684.31	1082.73
684.65	1080.39
684.99	1078.99
685.33	1085.77
685.67	1082.50
686.00	1081.09
686.34	1078.99
686.68	1081.09
687.02	1080.39
687.36	1081.56
687.70	1088.35
688.03	1088.58
688.37	1087.65
688.71	1082.50
689.05	1081.56
689.39	1069.39
689.72	1076.18
690.06	1076.88
690.40	1069.86
690.74	1076.41
691.08	1090.92
691.41	1089.52
691.75	1087.18
692.09	1091.16
692.43	1082.97
692.76	1073.60
693.10	1064.48
693.44	1067.52
693.78	1056.75
694.11	1062.60
694.45	1054.88
694.79	1057.45
695.13	1055.35
695.46	1079.46
695.80	1087.88
696.14	1099.82
696.48	1103.56
696.81	1101.92
697.15	1095.14
697.49	1091.16
697.82	1090.69
698.16	1091.16
698.50	1089.52
698.83	1079.46
699.17	1086.24
699.51	1084.37
699.84	1073.37
700.18	1071.97
700.52	1080.63
700.85	1064.24
701.19	1072.67
701.53	1087.65
701.86	1090.22
702.20	1090.46
702.54	1081.80
702.87	1073.60
703.21	1069.16
703.55	1087.65
703.88	1087.65
704.22	1087.41
704.55	1084.37
704.89	1090.22
705.23	1073.84
705.56	1070.56
705.90	1085.77
706.23	1079.92
706.57	1073.37
706.91	1080.63
707.24	1085.31
707.58	1086.01
707.91	1089.29
708.25	1088.35
708.58	1079.46
708.92	1072.20
709.26	1069.62
709.59	1086.24
709.93	1097.48
710.26	1097.48
710.60	1102.39
710.93	1097.01
711.27	1088.82
711.60	1078.99
711.94	1083.20
712.27	1076.88
712.61	1064.71
712.94	1070.56
713.28	1070.56
713.61	1067.28
713.95	1074.77
714.28	1093.73
714.62	1083.20
714.95	1085.31
715.29	1092.80
715.62	1077.82
715.96	1075.71
716.29	1078.05
716.63	1081.09
716.96	1076.65
717.29	1089.29
717.63	1081.80
717.96	1088.82
718.30	1075.48
718.63	1065.18
718.97	1062.37
719.30	1068.22
719.63	1063.31
719.97	1065.18
720.30	1073.84
720.64	1071.73
720.97	1066.58
721.30	1055.58
721.64	1057.92
721.97	1057.92
722.31	1062.60
722.64	1068.69
722.97	1075.94
723.31	1082.50
723.64	1086.48
723.97	1082.73
724.31	1085.31
724.64	1091.63
724.98	1087.65
725.31	1073.37
725.64	1077.35
725.98	1071.73
726.31	1067.28
726.64	1075.48
726.97	1093.26
727.31	1097.71
727.64	1093.97
727.97	1093.26
728.31	1083.43
728.64	1078.05
728.97	1075.94
729.31	1082.03
729.64	1085.77
729.97	1091.39
730.30	1083.20
730.64	1079.69
730.97	1086.01
731.30	1074.54
731.63	1062.37
731.97	1066.58
732.30	1074.31
732.63	1057.45
732.96	1071.50
733.30	1076.88
733.63	1069.39
733.96	1061.67
734.29	1058.62
734.63	1049.03
734.96	1057.69
735.29	1070.33
735.62	1072.90
735.95	1090.46
736.29	1099.35
736.62	1098.18
736.95	1094.67
737.28	1090.92
737.61	1090.69
737.94	1083.90
738.28	1069.16
738.61	1078.28
738.94	1083.67
739.27	1084.60
739.60	1086.24
739.93	1100.29
740.27	1086.71
740.60	1078.75
740.93	1067.28
741.26	1067.05
741.59	1061.20
741.92	1068.45
742.25	1078.05
742.58	1091.63
742.91	1089.05
743.25	1092.09
743.58	1095.84
743.91	1095.14
744.24	1083.43
744.57	1091.86
744.90	1090.92
745.23	1084.14
745.56	1076.88
745.89	1079.22
746.22	1072.90
746.55	1075.94
746.88	1079.46
747.21	1073.84
747.54	1079.22
747.87	1084.14
748.20	1073.14
748.53	1070.56
748.87	1088.58
749.20	1090.22
749.53	1079.69
749.86	1094.20
750.19	1096.07
750.52	1086.01
750.85	1083.67
751.18	1087.88
751.51	1083.67
751.84	1082.97
752.16	1086.01
752.49	1084.14
752.82	1086.24
753.15	1084.84
753.48	1086.01
753.81	1079.92
754.14	1075.01
754.47	1079.22
754.80	1075.48
755.13	1067.75
755.46	1071.50
755.79	1078.28
756.12	1072.67
756.45	1077.82
756.78	1080.16
757.11	1084.37
757.43	1082.50
757.76	1080.16
758.09	1082.73
758.42	1086.24
758.75	1084.37
759.08	1088.35
759.41	1086.24
759.74	1094.43
760.07	1091.16
760.39	1091.63
760.72	1086.71
761.05	1099.82
761.38	1092.33
761.71	1100.05
762.04	1100.99
762.36	1101.92
762.69	1085.77
763.02	1082.73
763.35	1081.09
763.68	1078.52
764.01	1085.07
764.33	1086.24
764.66	1075.01
764.99	1070.33
765.32	1071.26
765.65	1071.97
765.97	1083.67
766.30	1094.20
766.63	1098.65
766.96	1097.95
767.28	1081.09
767.61	1076.65
767.94	1072.20
768.27	1077.58
768.59	1070.56
768.92	1086.71
769.25	1086.24
769.58	1086.48
769.90	1085.77
770.23	1095.37
770.56	1079.22
770.89	1072.90
771.21	1072.67
771.54	1057.92
771.87	1050.20
772.19	1046.22
772.52	1049.50
772.85	1056.52
773.17	1071.03
773.50	1086.48
773.83	1091.86
774.15	1089.75
774.48	1088.82
774.81	1080.86
775.13	1070.56
775.46	1078.99
775.79	1088.35
776.11	1083.43
776.44	1085.77
776.77	1092.09
777.09	1091.86
777.42	1087.65
777.74	1082.03
778.07	1084.37
778.40	1072.20
778.72	1072.67
779.05	1075.94
779.37	1089.29
779.70	1094.43
780.03	1091.39
780.35	1091.63
780.68	1088.12
781.00	1079.22
781.33	1078.28
781.65	1082.73
781.98	1076.41
782.31	1080.63
782.63	1085.31
782.96	1079.92
783.28	1085.07
783.61	1085.54
783.93	1085.54
784.26	1089.99
784.58	1088.35
784.91	1086.01
785.23	1082.03
785.56	1082.26
785.88	1076.18
786.21	1067.28
786.53	1068.69
786.86	1076.18
787.18	1069.39
787.51	1067.05
787.83	1068.92
788.16	1058.62
788.48	1060.50
788.81	1061.67
789.13	1064.94
789.46	1072.90
789.78	1075.24
790.10	1078.52
790.43	1078.28
790.75	1085.77
791.08	1089.29
791.40	1087.65
791.73	1084.60
792.05	1090.22
792.37	1073.60
792.70	1066.58
793.02	1075.48
793.35	1075.71
793.67	1072.90
793.99	1080.63
794.32	1075.94
794.64	1080.16
794.96	1075.01
795.29	1074.54
795.61	1070.56
795.93	1080.63
796.26	1068.92
796.58	1066.82
796.91	1058.62
797.23	1062.60
797.55	1064.48
797.87	1067.05
798.20	1075.24
798.52	1086.71
798.84	1085.31
799.17	1078.99
799.49	1089.52
799.81	1082.03
800.14	1072.90
800.46	1075.01
800.78	1072.20
801.10	1060.96
801.43	1060.50
801.75	1066.58
802.07	1059.33
802.40	1062.60
802.72	1068.69
803.04	1069.39
803.36	1067.52
803.69	1074.31
804.01	1075.71
804.33	1069.39
804.65	1071.73
804.97	1070.56
805.30	1076.41
805.62	1079.46
805.94	1082.26
806.26	1079.46
806.58	1081.56
806.91	1079.92
807.23	1076.41
807.55	1077.58
807.87	1088.82
808.19	1089.05
808.52	1088.12
808.84	1082.50
809.16	1093.73
809.48	1089.05
809.80	1087.41
810.12	1090.46
810.44	1091.39
810.77	1082.03
811.09	1077.11
811.41	1073.84
811.73	1060.26
812.05	1068.22
812.37	1075.01
812.69	1083.67
813.01	1081.33
813.33	1087.41
813.66	1086.24
813.98	1081.80
814.30	1078.99
814.62	1080.86
814.94	1083.20
815.26	1080.39
815.58	1071.03
815.90	1070.80
816.22	1066.58
816.54	1060.96
816.86	1056.05
817.18	1063.77
817.50	1068.22
817.82	1077.11
818.14	1082.26
818.46	1087.65
818.78	1071.73
819.10	1064.71
819.42	1062.37
819.74	1061.43
820.06	1065.18
820.38	1077.58
820.70	1071.97
821.02	1062.60
821.34	1073.60
821.66	1069.86
821.98	1071.97
822.30	1074.77
822.62	1080.39
822.94	1071.26
823.26	1080.39
823.58	1082.26
823.90	1082.73
824.22	1087.41
824.54	1089.52
824.86	1074.07
825.18	1072.43
825.50	1073.84
825.81	1073.84
826.13	1066.58
826.45	1074.31
826.77	1074.77
827.09	1075.71
827.41	1071.73
827.73	1074.07
828.05	1071.26
828.36	1070.09
828.68	1058.62
829.00	1059.33
829.32	1064.48
829.64	1065.88
829.96	1067.05
830.28	1075.94
830.59	1078.05
830.91	1067.99
831.23	1072.67
831.55	1074.07
831.87	1076.41
832.19	1085.54
832.50	1089.05
832.82	1084.60
833.14	1082.50
833.46	1086.24
833.78	1077.35
834.09	1076.65
834.41	1076.41
834.73	1076.88
835.05	1067.75
835.36	1080.39
835.68	1084.60
836.00	1083.67
836.32	1075.94
836.63	1087.65
836.95	1083.90
837.27	1073.37
837.59	1072.20
837.90	1074.31
838.22	1061.43
838.54	1052.30
838.85	1065.65
839.17	1066.58
839.49	1080.86
839.80	1087.18
840.12	1086.94
840.44	1082.50
840.76	1089.99
841.07	1073.14
841.39	1072.20
841.71	1077.11
842.02	1075.94
842.34	1071.97
842.65	1077.58
842.97	1075.94
843.29	1082.03
843.60	1086.01
843.92	1089.05
844.24	1090.92
844.55	1089.29
844.87	1089.05
845.18	1084.14
845.50	1079.46
845.82	1074.54
846.13	1076.18
846.45	1062.84
846.76	1076.18
847.08	1067.99
847.40	1079.46
847.71	1086.71
848.03	1087.88
848.34	1078.52
848.66	1085.54
848.97	1077.82
849.29	1061.43
849.60	1070.80
849.92	1069.16
850.24	1069.39
850.55	1071.03
850.87	1079.22
851.18	1076.88
851.50	1071.50
851.81	1074.54
852.13	1079.46
852.44	1087.88
852.76	1081.33
853.07	1086.48
853.39	1084.84
853.70	1074.07
854.01	1067.28
854.33	1064.94
854.64	1068.69
854.96	1062.60
855.27	1071.50
855.59	1071.50
855.90	1083.90
856.22	1083.20
856.53	1082.97
856.84	1077.82
857.16	1081.56
857.47	1074.54
857.79	1077.35
858.10	1074.77
858.41	1069.62
858.73	1068.45
859.04	1070.33
859.36	1079.92
859.67	1080.63
859.98	1086.48
860.30	1092.09
860.61	1087.41
860.92	1069.39
861.24	1075.01
861.55	1072.90
861.87	1058.62
862.18	1065.18
862.49	1064.71
862.81	1061.43
863.12	1066.35
863.43	1078.52
863.74	1068.45
864.06	1077.58
864.37	1076.65
864.68	1076.65
865.00	1072.67
865.31	1076.18
865.62	1068.92
865.94	1075.01
866.25	1078.99
866.56	1082.50
866.87	1082.97
867.19	1089.75
867.50	1088.12
867.81	1084.60
868.12	1075.24
868.44	1071.73
868.75	1069.62
869.06	1073.37
869.37	1080.16
869.68	1093.73
870.00	1096.31
870.31	1088.35
870.62	1090.92
870.93	1076.88
871.24	1072.20
871.56	1068.92
871.87	1075.24
872.18	1063.31
872.49	1064.24
872.80	1062.37
873.12	1070.09
873.43	1074.77
873.74	1084.84
874.05	1097.95
874.36	1106.84
874.67	1102.39
874.98	1097.01
875.29	1093.26
875.61	1084.14
875.92	1075.94
876.23	1074.77
876.54	1070.80
876.85	1071.50
877.16	1072.43
877.47	1070.80
877.78	1080.86
878.09	1091.39
878.40	1095.60
878.72	1096.54
879.03	1106.37
879.34	1104.03
879.65	1100.99
879.96	1099.35
880.27	1104.50
880.58	1101.46
880.89	1096.54
881.20	1095.14
881.51	1091.16
881.82	1086.01
882.13	1079.69
882.44	1089.29
882.75	1089.99
883.06	1094.90
883.37	1089.05
883.68	1100.99
883.99	1091.86
884.30	1088.35
884.61	1083.20
884.92	1091.63
885.23	1079.22
885.54	1086.24
885.85	1092.80
886.16	1098.41
886.47	1095.84
886.78	1085.54
887.08	1080.63
887.39	1068.69
887.70	1068.92
888.01	1060.03
888.32	1075.71
888.63	1077.82
888.94	1076.65
889.25	1068.45
889.56	1075.24
889.87	1071.03
890.17	1072.90
890.48	1086.94
890.79	1089.05
891.10	1094.43
891.41	1097.24
891.72	1092.33
892.03	1086.48
892.34	1082.26
892.64	1079.22
892.95	1073.60
893.26	1075.94
893.57	1074.31
893.88	1080.86
894.18	1080.39
894.49	1081.09
894.80	1078.52
895.11	1083.67
895.42	1085.31
895.72	1088.35
896.03	1090.92
896.34	1103.56
896.65	1105.90
896.96	1093.73
897.26	1101.22
897.57	1107.54
897.88	1089.05
898.19	1086.01
898.49	1097.71
898.80	1088.58
899.11	1070.56
899.41	1075.01
899.72	1076.65
900.03	1071.50
900.34	1068.69
900.64	1078.28
900.95	1079.46
901.26	1071.03
901.56	1069.62
901.87	1068.45
902.18	1069.39
902.48	1068.45
902.79	1075.48
903.10	1072.90
903.40	1072.43
903.71	1081.33
904.02	1093.50
904.32	1085.31
904.63	1097.71
904.94	1094.20
905.24	1078.28
905.55	1065.88
905.85	1066.11
906.16	1064.94
906.47	1080.63
906.77	1087.88
907.08	1086.24
907.38	1089.52
907.69	1079.92
908.00	1068.69
908.30	1072.20
908.61	1076.65
908.91	1079.69
909.22	1080.63
909.52	1082.50
909.83	1078.75
910.14	1086.94
910.44	1082.26
910.75	1079.46
911.05	1078.52
911.36	1085.54
911.66	1066.58
911.97	1063.31
912.27	1071.03
912.58	1072.90
912.88	1059.56
913.19	1074.31
913.49	1076.88
913.80	1081.56
914.10	1076.88
914.41	1078.52
914.71	1069.62
915.01	1066.11
915.32	1060.50
915.62	1060.50
915.93	1061.20
916.23	1073.60
916.54	1073.84
916.84	1066.82
917.15	1068.92
917.45	1070.56
917.75	1064.24
918.06	1074.77
918.36	1085.07
918.67	1089.99
918.97	1085.54
919.27	1086.01
919.58	1071.03
919.88	1061.43
920.18	1054.88
920.49	1067.05
920.79	1064.24
921.10	1073.37
921.40	1079.22
921.70	1079.92
922.01	1068.69
922.31	1076.41
922.61	1086.48
922.92	1085.54
923.22	1086.01
923.52	1100.29
923.82	1090.22
924.13	1083.43
924.43	1080.16
924.73	1076.41
925.04	1071.50
925.34	1079.92
925.64	1085.31
925.94	1093.50
926.25	1099.35
926.55	1095.37
926.85	1088.35
927.15	1081.56
927.46	1074.54
927.76	1070.56
928.06	1070.80
928.36	1077.35
928.67	1075.24
928.97	1075.48
929.27	1072.90
929.57	1063.77
929.87	1048.33
930.18	1040.13
930.48	1044.35
930.78	1050.90
931.08	1072.67
931.38	1077.82
931.69	1094.90
931.99	1095.84
932.29	1095.37
932.59	1076.65
932.89	1085.07
933.19	1076.88
933.49	1068.22
933.80	1065.41
934.10	1073.37
934.40	1075.24
934.70	1080.63
935.00	1082.26
935.30	1087.65
935.60	1086.71
935.90	1076.88
936.20	1072.67
936.50	1067.28
936.81	1062.60
937.11	1059.33
937.41	1058.86
937.71	1058.39
938.01	1066.82
938.31	1068.22
938.61	1075.48
938.91	1085.77
939.21	1093.26
939.51	1093.73
939.81	1091.16
940.11	1084.84
940.41	1078.05
940.71	1076.18
941.01	1072.20
941.31	1081.56
941.61	1081.33
941.91	1072.90
942.21	1061.67
942.51	1062.84
942.81	1050.90
943.11	1049.73
943.41	1056.52
943.71	1056.75
944.01	1053.94
944.31	1069.39
944.61	1073.84
944.90	1082.50
945.20	1096.78
945.50	1111.75
945.80	1101.22
946.10	1096.07
946.40	1080.39
946.70	1066.82
947.00	1060.26
947.30	1061.67
947.60	1066.11
947.89	1067.28
948.19	1073.14
948.49	1066.58
948.79	1069.62
949.09	1067.28
949.39	1085.07
949.69	1077.35
949.98	1084.37
950.28	1075.48
950.58	1075.71
950.88	1069.39
951.18	1083.67
951.48	1084.14
951.77	1082.73
952.07	1084.37
952.37	1082.03
952.67	1067.99
952.97	1065.41
953.26	1073.37
953.56	1071.97
953.86	1063.77
954.16	1086.01
954.45	1080.39
954.75	1078.05
955.05	1084.37
955.35	1081.80
955.64	1060.26
955.94	1073.37
956.24	1074.31
956.54	1070.56
956.83	1088.82
957.13	1092.56
957.43	1095.60
957.72	1095.14
958.02	1089.29
958.32	1086.48
958.61	1090.22
958.91	1088.82
959.21	1091.63
959.50	1097.48
959.80	1103.56
960.10	1107.07
960.39	1092.56
960.69	1095.14
960.99	1094.20
961.28	1090.92
961.58	1087.65
961.87	1094.20
962.17	1095.14
962.47	1089.05
962.76	1078.28
963.06	1073.84
963.36	1061.90
963.65	1047.86
963.95	1045.52
964.24	1044.35
964.54	1045.05
964.83	1061.67
965.13	1081.33
965.42	1086.94
965.72	1085.77
966.02	1091.86
966.31	1093.97
966.61	1083.67
966.90	1086.01
967.20	1095.84
967.49	1093.73
967.79	1087.65
968.08	1094.67
968.38	1093.03
968.67	1088.58
968.97	1085.54
969.26	1086.94
969.56	1079.92
969.85	1086.48
970.15	1083.43
970.44	1094.20
970.74	1089.99
971.03	1080.86
971.32	1074.31
971.62	1068.69
971.91	1045.52
972.21	1045.52
972.50	1053.24
972.80	1054.41
973.09	1067.52
973.38	1085.31
973.68	1085.77
973.97	1087.88
974.27	1086.48
974.56	1082.26
974.85	1070.09
975.15	1064.01
975.44	1074.54
975.73	1077.35
976.03	1074.07
976.32	1081.09
976.61	1089.75
976.91	1076.18
977.20	1081.56
977.49	1077.11
977.79	1071.03
978.08	1067.75
978.37	1082.03
978.67	1079.22
978.96	1078.52
979.25	1078.99
979.55	1081.56
979.84	1072.43
980.13	1073.60
980.42	1084.37
980.72	1099.58
981.01	1097.48
981.30	1098.41
981.59	1096.54
981.89	1095.14
982.18	1089.29
982.47	1094.43
982.76	1096.07
983.06	1101.92
983.35	1104.73
983.64	1105.67
983.93	1092.56
984.22	1090.92
984.52	1077.11
984.81	1060.73
985.10	1047.62
985.39	1050.67
985.68	1048.09
985.97	1050.20
986.27	1061.20
986.56	1065.18
986.85	1067.05
987.14	1069.86
987.43	1075.71
987.72	1067.52
988.01	1069.16
988.31	1067.75
988.60	1065.18
988.89	1063.07
989.18	1070.80
989.47	1082.03
989.76	1090.22
990.05	1088.82
990.34	1098.65
990.63	1096.54
990.92	1083.67
991.21	1084.37
991.51	1078.28
991.80	1064.01
992.09	1068.69
992.38	1079.69
992.67	1070.80
992.96	1075.01
993.25	1075.48
993.54	1079.22
993.83	1065.88
994.12	1070.80
994.41	1074.07
994.70	1083.67
994.99	1075.01
995.28	1081.56
995.57	1085.07
995.86	1082.97
996.15	1075.71
996.44	1081.09
996.73	1082.73
997.02	1080.39
997.31	1081.56
997.59	1079.46
997.88	1085.54
998.17	1088.58
998.46	1089.75
998.75	1095.14
999.04	1092.80
999.33	1086.24
999.62	1084.60
999.91	1085.77
1000.20	1081.80
1000.49	1084.14
1000.77	1078.28
1001.06	1083.20
1001.35	1076.88
1001.64	1075.71
1001.93	1078.28
1002.22	1087.65
1002.51	1071.97
1002.79	1075.48
1003.08	1071.26
1003.37	1075.24
1003.66	1071.73
1003.95	1083.90
1004.23	1084.37
1004.52	1088.35
1004.81	1079.46
1005.10	1078.52
1005.39	1078.05
1005.67	1073.84
1005.96	1070.09
1006.25	1068.22
1006.54	1067.52
1006.83	1062.37
1007.11	1067.05
1007.40	1070.56
1007.69	1078.05
1007.97	1079.46
1008.26	1070.09
1008.55	1064.94
1008.84	1058.39
1009.12	1053.01
1009.41	1052.07
1009.70	1067.99
1009.98	1072.67
1010.27	1073.60
1010.56	1073.37
1010.85	1075.71
1011.13	1072.67
1011.42	1066.35
1011.71	1057.69
1011.99	1061.43
1012.28	1063.31
1012.56	1061.90
1012.85	1070.80
1013.14	1079.92
1013.42	1078.52
1013.71	1069.62
1014.00	1066.58
1014.28	1061.43
1014.57	1064.71
1014.85	1057.92
1015.14	1068.22
1015.43	1072.43
1015.71	1075.71
1016.00	1078.52
1016.28	1079.46
1016.57	1072.20
1016.85	1068.92
1017.14	1067.52
1017.43	1062.84
1017.71	1068.22
1018.00	1065.88
1018.28	1074.31
1018.57	1074.77
1018.85	1079.69
1019.14	1081.09
1019.42	1089.05
1019.71	1084.14
1019.99	1086.24
1020.28	1088.82
1020.56	1090.46
1020.85	1089.05
1021.13	1089.29
1021.42	1077.82
1021.70	1071.26
1021.99	1081.56
1022.27	1082.73
1022.55	1128.14
1022.84	1096.54
>>>>>End Processed Spectral Data<<<<<
