SpectraSuite Data File
++++++++++++++++++++++++++++++++++++
Date: Mon Aug 26 10:25:54 PDT 2019
User: corrico
Dark Spectrum Present: No
Reference Spectrum Present: No
Number of Sampled Component Spectra: 1
Spectrometers: USB2+H06089
Integration Time (usec): 10000 (USB2+H06089)
Spectra Averaged: 2 (USB2+H06089)
Boxcar Smoothing: 2 (USB2+H06089)
Correct for Electrical Dark: No (USB2+H06089)
Strobe/Lamp Enabled: No (USB2+H06089)
Correct for Detector Non-linearity: No (USB2+H06089)
Correct for Stray Light: No (USB2+H06089)
Number of Pixels in Processed Spectrum: 2048
>>>>>Begin Processed Spectral Data<<<<<
339.70	991.22
340.07	991.22
340.45	967.34
340.82	954.47
341.19	940.19
341.57	922.87
341.94	913.04
342.31	907.19
342.69	896.89
343.06	888.94
343.43	892.45
343.81	901.57
344.18	904.38
344.55	907.19
344.93	914.68
345.30	922.41
345.67	927.32
346.04	942.77
346.42	961.96
346.79	974.37
347.16	982.56
347.54	981.62
347.91	978.34
348.28	989.58
348.65	995.20
349.03	1005.26
349.40	1021.88
349.77	1040.13
350.14	1038.96
350.52	1041.30
350.89	1052.07
351.26	1060.03
351.63	1061.43
352.01	1064.71
352.38	1074.07
352.75	1059.09
353.12	1061.67
353.50	1052.77
353.87	1051.13
354.24	1053.48
354.61	1065.88
354.98	1063.31
355.36	1081.09
355.73	1087.88
356.10	1086.48
356.47	1085.07
356.84	1086.94
357.22	1085.77
357.59	1090.22
357.96	1095.84
358.33	1097.24
358.70	1094.67
359.08	1100.75
359.45	1094.90
359.82	1093.50
360.19	1088.82
360.56	1093.97
360.94	1084.14
361.31	1088.12
361.68	1083.67
362.05	1089.75
362.42	1086.24
362.79	1079.46
363.16	1065.41
363.54	1067.75
363.91	1062.14
364.28	1056.05
364.65	1059.79
365.02	1076.41
365.39	1070.09
365.76	1067.99
366.14	1074.07
366.51	1073.14
366.88	1066.35
367.25	1064.94
367.62	1068.69
367.99	1063.31
368.36	1066.58
368.73	1061.67
369.10	1061.90
369.48	1050.20
369.85	1059.33
370.22	1051.60
370.59	1056.75
370.96	1057.69
371.33	1062.37
371.70	1058.39
372.07	1065.41
372.44	1056.99
372.81	1052.77
373.18	1057.22
373.55	1055.58
373.93	1048.09
374.30	1057.92
374.67	1063.54
375.04	1060.96
375.41	1060.50
375.78	1063.31
376.15	1053.24
376.52	1064.48
376.89	1072.20
377.26	1071.50
377.63	1079.92
378.00	1090.22
378.37	1081.33
378.74	1077.35
379.11	1074.07
379.48	1066.82
379.85	1064.01
380.22	1057.92
380.59	1059.33
380.96	1052.30
381.33	1053.48
381.70	1059.33
382.07	1059.79
382.44	1060.26
382.81	1070.56
383.18	1073.60
383.55	1076.88
383.92	1091.63
384.29	1081.80
384.66	1077.11
385.03	1084.14
385.40	1076.65
385.77	1071.26
386.14	1076.18
386.51	1085.07
386.88	1077.35
387.25	1080.63
387.62	1071.26
387.99	1073.84
388.36	1081.09
388.73	1071.03
389.10	1068.22
389.46	1081.09
389.83	1082.50
390.20	1071.50
390.57	1091.16
390.94	1092.56
391.31	1089.99
391.68	1097.01
392.05	1103.09
392.42	1091.86
392.79	1092.33
393.16	1089.75
393.53	1084.84
393.89	1084.37
394.26	1080.39
394.63	1075.94
395.00	1065.18
395.37	1058.86
395.74	1054.88
396.11	1052.54
396.48	1058.39
396.84	1066.11
397.21	1072.90
397.58	1070.80
397.95	1073.60
398.32	1072.90
398.69	1083.67
399.06	1078.75
399.42	1076.88
399.79	1079.69
400.16	1082.73
400.53	1069.39
400.90	1067.99
401.27	1077.82
401.64	1077.35
402.00	1071.26
402.37	1068.45
402.74	1067.75
403.11	1060.26
403.48	1058.39
403.84	1065.65
404.21	1069.86
404.58	1079.22
404.95	1088.12
405.32	1087.65
405.68	1074.54
406.05	1081.56
406.42	1071.50
406.79	1058.86
407.16	1064.01
407.52	1073.60
407.89	1062.37
408.26	1065.88
408.63	1072.67
408.99	1072.43
409.36	1071.73
409.73	1078.99
410.10	1081.56
410.47	1073.14
410.83	1076.41
411.20	1067.99
411.57	1068.69
411.94	1066.35
412.30	1078.75
412.67	1067.99
413.04	1072.20
413.40	1068.92
413.77	1063.54
414.14	1060.50
414.51	1076.18
414.87	1083.90
415.24	1097.71
415.61	1107.31
415.97	1109.88
416.34	1094.20
416.71	1078.52
417.08	1064.01
417.44	1061.90
417.81	1054.18
418.18	1051.60
418.54	1063.31
418.91	1071.03
419.28	1068.22
419.64	1072.20
420.01	1086.01
420.38	1086.94
420.74	1087.41
421.11	1096.31
421.48	1096.54
421.84	1090.22
422.21	1088.58
422.58	1075.94
422.94	1067.28
423.31	1077.58
423.68	1077.82
424.04	1073.60
424.41	1082.03
424.77	1080.16
425.14	1077.11
425.51	1083.67
425.87	1087.41
426.24	1092.33
426.61	1088.58
426.97	1074.07
427.34	1068.69
427.70	1068.45
428.07	1063.77
428.44	1070.80
428.80	1074.54
429.17	1067.28
429.53	1069.39
429.90	1070.09
430.27	1078.75
430.63	1077.82
431.00	1082.26
431.36	1075.94
431.73	1064.01
432.09	1053.48
432.46	1049.50
432.83	1046.69
433.19	1047.39
433.56	1057.22
433.92	1059.56
434.29	1063.07
434.65	1068.45
435.02	1071.50
435.38	1072.90
435.75	1073.14
436.11	1071.03
436.48	1070.33
436.84	1060.96
437.21	1070.56
437.57	1070.80
437.94	1066.35
438.30	1063.77
438.67	1078.52
439.03	1074.07
439.40	1075.01
439.76	1091.63
440.13	1096.54
440.49	1090.22
440.86	1080.16
441.22	1079.46
441.59	1075.01
441.95	1073.60
442.32	1076.65
442.68	1085.07
443.05	1077.11
443.41	1069.62
443.78	1071.73
444.14	1060.50
444.51	1058.16
444.87	1079.22
445.24	1079.92
445.60	1075.48
445.96	1089.52
446.33	1096.78
446.69	1086.71
447.06	1097.24
447.42	1093.26
447.79	1078.52
448.15	1068.22
448.51	1070.33
448.88	1060.03
449.24	1063.31
449.61	1085.07
449.97	1087.88
450.33	1073.84
450.70	1075.48
451.06	1075.71
451.43	1064.71
451.79	1068.69
452.15	1072.67
452.52	1076.65
452.88	1075.94
453.24	1078.05
453.61	1075.94
453.97	1078.75
454.34	1080.16
454.70	1078.05
455.06	1085.31
455.43	1087.41
455.79	1096.31
456.15	1092.80
456.52	1097.24
456.88	1089.75
457.24	1091.39
457.61	1084.60
457.97	1087.41
458.33	1086.94
458.70	1091.86
459.06	1092.09
459.42	1089.99
459.79	1089.75
460.15	1087.65
460.51	1077.11
460.88	1069.86
461.24	1071.50
461.60	1072.67
461.96	1087.18
462.33	1087.65
462.69	1088.35
463.05	1086.71
463.42	1081.80
463.78	1069.62
464.14	1073.37
464.50	1081.33
464.87	1079.92
465.23	1089.29
465.59	1089.99
465.95	1099.35
466.32	1082.97
466.68	1091.86
467.04	1075.24
467.40	1082.26
467.77	1072.90
468.13	1086.48
468.49	1075.48
468.85	1087.18
469.22	1082.73
469.58	1080.63
469.94	1073.60
470.30	1075.71
470.66	1067.75
471.03	1062.84
471.39	1069.86
471.75	1074.54
472.11	1077.35
472.47	1087.88
472.84	1091.63
473.20	1087.41
473.56	1083.67
473.92	1086.48
474.28	1083.20
474.65	1077.82
475.01	1080.16
475.37	1084.84
475.73	1078.28
476.09	1081.33
476.45	1092.56
476.81	1079.46
477.18	1071.26
477.54	1072.90
477.90	1059.09
478.26	1053.24
478.62	1054.18
478.98	1061.90
479.34	1069.62
479.71	1082.73
480.07	1087.41
480.43	1100.75
480.79	1094.43
481.15	1094.43
481.51	1091.63
481.87	1092.33
482.23	1091.16
482.59	1093.73
482.96	1090.92
483.32	1095.60
483.68	1090.69
484.04	1087.41
484.40	1087.41
484.76	1091.39
485.12	1091.39
485.48	1090.46
485.84	1091.86
486.20	1093.50
486.56	1088.12
486.92	1085.31
487.28	1084.14
487.64	1083.20
488.00	1081.09
488.37	1075.24
488.73	1069.62
489.09	1070.33
489.45	1061.43
489.81	1063.31
490.17	1063.77
490.53	1060.03
490.89	1054.88
491.25	1062.84
491.61	1072.67
491.97	1072.20
492.33	1082.73
492.69	1093.50
493.05	1101.22
493.41	1086.94
493.77	1086.48
494.13	1094.20
494.49	1087.65
494.85	1082.26
495.21	1088.12
495.57	1090.69
495.93	1088.82
496.29	1087.88
496.64	1080.39
497.00	1077.11
497.36	1083.90
497.72	1076.65
498.08	1089.75
498.44	1094.20
498.80	1097.95
499.16	1092.80
499.52	1095.37
499.88	1085.54
500.24	1080.86
500.60	1069.86
500.96	1070.33
501.32	1065.88
501.68	1067.75
502.03	1084.84
502.39	1090.22
502.75	1087.41
503.11	1094.67
503.47	1092.33
503.83	1081.09
504.19	1082.03
504.55	1091.63
504.91	1079.69
505.26	1086.01
505.62	1090.92
505.98	1096.78
506.34	1097.95
506.70	1094.20
507.06	1083.43
507.42	1083.90
507.78	1083.20
508.13	1083.43
508.49	1092.80
508.85	1104.97
509.21	1102.63
509.57	1115.03
509.93	1104.50
510.28	1102.63
510.64	1095.60
511.00	1099.58
511.36	1096.31
511.72	1099.12
512.07	1097.48
512.43	1100.52
512.79	1098.18
513.15	1080.39
513.51	1072.67
513.86	1081.80
514.22	1088.12
514.58	1084.37
514.94	1088.12
515.30	1103.33
515.65	1096.07
516.01	1088.35
516.37	1088.58
516.73	1099.35
517.08	1096.78
517.44	1093.97
517.80	1098.18
518.16	1101.46
518.51	1090.92
518.87	1082.97
519.23	1084.84
519.59	1083.90
519.94	1072.43
520.30	1073.60
520.66	1073.14
521.01	1075.24
521.37	1064.94
521.73	1078.05
522.09	1082.97
522.44	1094.67
522.80	1101.22
523.16	1112.46
523.51	1108.48
523.87	1108.24
524.23	1091.39
524.58	1093.97
524.94	1086.94
525.30	1087.65
525.65	1087.41
526.01	1105.67
526.37	1110.82
526.72	1114.80
527.08	1111.29
527.44	1103.33
527.79	1096.78
528.15	1088.82
528.51	1085.07
528.86	1094.67
529.22	1097.48
529.58	1100.29
529.93	1092.80
530.29	1090.46
530.65	1087.18
531.00	1088.12
531.36	1085.77
531.71	1085.31
532.07	1088.12
532.43	1085.54
532.78	1080.86
533.14	1079.22
533.49	1088.12
533.85	1097.48
534.21	1099.82
534.56	1114.80
534.92	1113.86
535.27	1109.88
535.63	1096.78
535.98	1100.05
536.34	1095.14
536.69	1091.16
537.05	1089.29
537.41	1090.46
537.76	1086.48
538.12	1090.92
538.47	1094.43
538.83	1090.22
539.18	1098.41
539.54	1093.50
539.89	1080.63
540.25	1086.71
540.60	1087.41
540.96	1078.05
541.31	1081.09
541.67	1091.39
542.02	1093.50
542.38	1097.71
542.73	1108.01
543.09	1111.29
543.44	1102.16
543.80	1092.09
544.15	1091.39
544.51	1084.14
544.86	1081.56
545.22	1098.65
545.57	1104.26
545.93	1108.48
546.28	1116.44
546.64	1125.33
546.99	1115.97
547.35	1102.16
547.70	1097.01
548.05	1090.22
548.41	1084.37
548.76	1084.84
549.12	1104.50
549.47	1102.39
549.83	1099.35
550.18	1091.86
550.53	1085.07
550.89	1074.07
551.24	1083.90
551.60	1084.37
551.95	1091.86
552.30	1092.56
552.66	1085.07
553.01	1075.71
553.37	1076.65
553.72	1071.26
554.07	1076.88
554.43	1087.18
554.78	1090.22
555.13	1081.09
555.49	1073.37
555.84	1061.20
556.19	1055.58
556.55	1055.82
556.90	1066.11
557.26	1075.24
557.61	1075.94
557.96	1072.90
558.32	1073.37
558.67	1074.77
559.02	1083.90
559.37	1089.99
559.73	1099.82
560.08	1098.88
560.43	1101.92
560.79	1098.65
561.14	1095.84
561.49	1091.39
561.85	1091.63
562.20	1092.33
562.55	1082.97
562.90	1086.48
563.26	1077.35
563.61	1070.33
563.96	1068.92
564.32	1074.31
564.67	1082.97
565.02	1100.05
565.37	1112.69
565.73	1118.07
566.08	1115.50
566.43	1102.63
566.78	1095.14
567.14	1089.75
567.49	1082.97
567.84	1076.88
568.19	1089.29
568.54	1092.56
568.90	1094.43
569.25	1091.16
569.60	1100.52
569.95	1094.43
570.31	1083.90
570.66	1072.90
571.01	1069.86
571.36	1072.90
571.71	1068.69
572.06	1086.48
572.42	1100.52
572.77	1104.73
573.12	1099.12
573.47	1110.82
573.82	1103.56
574.18	1088.82
574.53	1086.94
574.88	1089.99
575.23	1084.60
575.58	1080.63
575.93	1083.43
576.28	1080.39
576.64	1078.28
576.99	1072.67
577.34	1074.07
577.69	1070.80
578.04	1071.97
578.39	1074.07
578.74	1077.58
579.09	1076.18
579.44	1080.86
579.80	1083.43
580.15	1080.86
580.50	1072.90
580.85	1077.35
581.20	1077.11
581.55	1072.67
581.90	1070.80
582.25	1075.71
582.60	1073.14
582.95	1078.28
583.30	1080.86
583.65	1089.99
584.00	1093.03
584.35	1095.14
584.71	1091.63
585.06	1089.29
585.41	1086.94
585.76	1080.39
586.11	1081.09
586.46	1085.77
586.81	1096.54
587.16	1084.60
587.51	1088.58
587.86	1089.99
588.21	1084.14
588.56	1068.69
588.91	1064.94
589.26	1065.65
589.61	1056.75
589.96	1055.11
590.31	1065.65
590.66	1074.31
591.01	1084.14
591.36	1092.56
591.71	1099.12
592.06	1103.09
592.41	1098.88
592.76	1086.94
593.10	1090.22
593.45	1082.97
593.80	1087.88
594.15	1092.33
594.50	1091.16
594.85	1081.56
595.20	1084.14
595.55	1074.77
595.90	1069.86
596.25	1076.65
596.60	1087.65
596.95	1112.46
597.30	1121.82
597.64	1169.57
597.99	1170.97
598.34	1158.10
598.69	1130.01
599.04	1118.07
599.39	1073.14
599.74	1066.58
600.09	1069.16
600.44	1076.18
600.78	1080.16
601.13	1076.65
601.48	1077.82
601.83	1085.54
602.18	1076.88
602.53	1070.09
602.88	1078.52
603.22	1079.22
603.57	1079.22
603.92	1080.63
604.27	1090.69
604.62	1086.01
604.97	1081.33
605.31	1078.28
605.66	1087.65
606.01	1087.18
606.36	1102.86
606.71	1104.73
607.05	1101.69
607.40	1094.20
607.75	1090.92
608.10	1074.07
608.44	1072.20
608.79	1079.46
609.14	1082.50
609.49	1085.54
609.84	1095.84
610.18	1100.29
610.53	1093.73
610.88	1099.12
611.23	1098.18
611.57	1087.88
611.92	1088.35
612.27	1082.50
612.62	1079.69
612.96	1075.71
613.31	1082.73
613.66	1083.67
614.00	1094.43
614.35	1088.12
614.70	1087.18
615.05	1081.80
615.39	1082.03
615.74	1075.24
616.09	1076.18
616.43	1078.99
616.78	1073.14
617.13	1076.65
617.47	1081.33
617.82	1090.69
618.17	1094.67
618.51	1098.41
618.86	1097.95
619.21	1099.58
619.55	1098.88
619.90	1086.01
620.25	1086.01
620.59	1077.82
620.94	1075.94
621.29	1080.39
621.63	1086.71
621.98	1089.75
622.32	1086.94
622.67	1082.73
623.02	1067.75
623.36	1066.82
623.71	1070.33
624.05	1072.43
624.40	1072.20
624.75	1082.73
625.09	1081.80
625.44	1083.43
625.78	1085.31
626.13	1087.41
626.48	1085.54
626.82	1082.26
627.17	1076.65
627.51	1081.80
627.86	1078.99
628.20	1082.03
628.55	1086.71
628.89	1088.12
629.24	1080.16
629.58	1084.84
629.93	1082.73
630.28	1087.18
630.62	1084.84
630.97	1081.09
631.31	1086.01
631.66	1080.86
632.00	1073.14
632.35	1081.09
632.69	1089.29
633.04	1082.73
633.38	1079.92
633.73	1078.52
634.07	1076.18
634.42	1060.96
634.76	1060.73
635.11	1060.73
635.45	1071.03
635.79	1071.50
636.14	1086.24
636.48	1090.22
636.83	1100.05
637.17	1095.84
637.52	1076.18
637.86	1079.46
638.21	1074.31
638.55	1063.07
638.89	1056.99
639.24	1061.67
639.58	1048.33
639.93	1054.88
640.27	1066.58
640.61	1074.07
640.96	1084.60
641.30	1093.50
641.65	1087.41
641.99	1081.80
642.33	1083.43
642.68	1084.37
643.02	1089.52
643.37	1084.37
643.71	1076.65
644.05	1073.14
644.40	1069.62
644.74	1065.18
645.08	1066.35
645.43	1069.62
645.77	1076.88
646.11	1079.69
646.46	1080.16
646.80	1087.88
647.14	1093.97
647.49	1088.82
647.83	1086.01
648.17	1079.22
648.52	1083.90
648.86	1075.01
649.20	1078.52
649.55	1081.33
649.89	1077.82
650.23	1069.16
650.57	1077.82
650.92	1077.58
651.26	1076.18
651.60	1092.33
651.95	1090.22
652.29	1084.84
652.63	1075.48
652.97	1080.16
653.32	1080.39
653.66	1085.07
654.00	1091.86
654.34	1092.80
654.69	1085.31
655.03	1078.05
655.37	1075.48
655.71	1077.11
656.05	1086.48
656.40	1085.77
656.74	1093.50
657.08	1098.88
657.42	1088.12
657.76	1086.01
658.11	1084.37
658.45	1081.56
658.79	1082.03
659.13	1090.69
659.47	1075.71
659.82	1083.20
660.16	1082.50
660.50	1071.50
660.84	1075.71
661.18	1084.14
661.52	1082.50
661.87	1082.97
662.21	1082.73
662.55	1077.35
662.89	1076.18
663.23	1082.26
663.57	1078.75
663.91	1093.97
664.25	1085.77
664.60	1088.12
664.94	1076.88
665.28	1081.33
665.62	1083.90
665.96	1086.01
666.30	1092.80
666.64	1092.56
666.98	1090.46
667.32	1075.48
667.66	1084.60
668.01	1076.18
668.35	1082.97
668.69	1077.35
669.03	1076.65
669.37	1068.92
669.71	1071.50
670.05	1062.84
670.39	1065.88
670.73	1071.97
671.07	1075.94
671.41	1081.09
671.75	1086.48
672.09	1089.29
672.43	1090.22
672.77	1094.43
673.11	1091.16
673.45	1090.69
673.79	1084.14
674.13	1085.77
674.47	1080.39
674.81	1082.97
675.15	1087.18
675.49	1088.35
675.83	1077.11
676.17	1080.63
676.51	1071.73
676.85	1071.97
677.19	1068.22
677.53	1072.20
677.87	1069.62
678.21	1068.69
678.55	1064.71
678.89	1072.67
679.23	1072.67
679.57	1069.62
679.90	1081.80
680.24	1087.65
680.58	1086.01
680.92	1087.41
681.26	1084.14
681.60	1078.28
681.94	1073.14
682.28	1078.75
682.62	1072.20
682.96	1085.54
683.29	1082.26
683.63	1078.05
683.97	1075.71
684.31	1076.88
684.65	1071.73
684.99	1083.90
685.33	1086.94
685.67	1078.28
686.00	1078.52
686.34	1075.48
686.68	1072.67
687.02	1075.94
687.36	1086.71
687.70	1098.18
688.03	1100.99
688.37	1089.75
688.71	1091.86
689.05	1089.99
689.39	1085.31
689.72	1087.18
690.06	1098.88
690.40	1096.78
690.74	1097.95
691.08	1102.86
691.41	1107.78
691.75	1090.69
692.09	1085.31
692.43	1086.24
692.76	1080.16
693.10	1075.48
693.44	1089.52
693.78	1087.18
694.11	1088.82
694.45	1096.54
694.79	1085.54
695.13	1076.88
695.46	1077.82
695.80	1077.82
696.14	1072.90
696.48	1078.75
696.81	1079.22
697.15	1083.43
697.49	1075.01
697.82	1070.56
698.16	1067.52
698.50	1080.39
698.83	1083.67
699.17	1085.07
699.51	1083.20
699.84	1089.75
700.18	1074.07
700.52	1069.86
700.85	1066.82
701.19	1073.37
701.53	1076.41
701.86	1072.20
702.20	1078.99
702.54	1075.24
702.87	1071.50
703.21	1072.43
703.55	1092.33
703.88	1083.67
704.22	1082.26
704.55	1082.97
704.89	1083.20
705.23	1071.03
705.56	1077.58
705.90	1084.37
706.23	1085.77
706.57	1081.80
706.91	1088.82
707.24	1080.63
707.58	1082.50
707.91	1085.07
708.25	1089.05
708.58	1086.71
708.92	1086.71
709.26	1091.39
709.59	1088.58
709.93	1078.28
710.26	1066.82
710.60	1070.09
710.93	1060.96
711.27	1060.73
711.60	1065.18
711.94	1072.90
712.27	1074.54
712.61	1082.97
712.94	1084.14
713.28	1087.41
713.61	1080.86
713.95	1073.60
714.28	1073.84
714.62	1067.99
714.95	1073.14
715.29	1077.82
715.62	1087.18
715.96	1082.03
716.29	1086.01
716.63	1089.75
716.96	1098.41
717.29	1098.41
717.63	1098.18
717.96	1087.65
718.30	1080.39
718.63	1077.58
718.97	1064.24
719.30	1070.56
719.63	1080.16
719.97	1079.46
720.30	1078.99
720.64	1094.43
720.97	1083.90
721.30	1088.35
721.64	1082.97
721.97	1084.37
722.31	1078.99
722.64	1083.20
722.97	1075.94
723.31	1079.22
723.64	1083.43
723.97	1077.82
724.31	1080.63
724.64	1089.29
724.98	1077.82
725.31	1074.31
725.64	1081.80
725.98	1086.48
726.31	1090.46
726.64	1109.65
726.97	1101.92
727.31	1090.69
727.64	1082.73
727.97	1071.73
728.31	1064.48
728.64	1066.11
728.97	1074.54
729.31	1068.69
729.64	1075.01
729.97	1069.16
730.30	1073.14
730.64	1070.80
730.97	1080.16
731.30	1077.58
731.63	1082.26
731.97	1080.16
732.30	1086.48
732.63	1087.65
732.96	1084.14
733.30	1082.50
733.63	1075.48
733.96	1064.48
734.29	1057.69
734.63	1059.56
734.96	1062.14
735.29	1068.22
735.62	1081.09
735.95	1086.48
736.29	1085.31
736.62	1085.54
736.95	1086.24
737.28	1091.63
737.61	1095.37
737.94	1101.92
738.28	1099.82
738.61	1106.14
738.94	1090.92
739.27	1079.92
739.60	1080.86
739.93	1084.84
740.27	1083.20
740.60	1084.14
740.93	1090.46
741.26	1082.97
741.59	1087.41
741.92	1089.29
742.25	1103.09
742.58	1104.73
742.91	1099.12
743.25	1082.73
743.58	1078.28
743.91	1071.73
744.24	1067.28
744.57	1086.01
744.90	1086.24
745.23	1082.73
745.56	1088.12
745.89	1086.01
746.22	1068.92
746.55	1073.14
746.88	1078.52
747.21	1064.01
747.54	1071.97
747.87	1071.50
748.20	1079.22
748.53	1083.43
748.87	1091.39
749.20	1086.24
749.53	1089.75
749.86	1081.33
750.19	1075.24
750.52	1064.24
750.85	1072.90
751.18	1077.35
751.51	1075.94
751.84	1077.35
752.16	1098.88
752.49	1087.65
752.82	1093.26
753.15	1094.67
753.48	1084.37
753.81	1074.77
754.14	1071.26
754.47	1060.73
754.80	1061.67
755.13	1064.01
755.46	1058.16
755.79	1063.31
756.12	1064.48
756.45	1066.35
756.78	1065.65
757.11	1074.54
757.43	1075.24
757.76	1078.52
758.09	1078.28
758.42	1083.43
758.75	1072.67
759.08	1077.11
759.41	1081.56
759.74	1085.77
760.07	1084.84
760.39	1095.14
760.72	1096.78
761.05	1088.82
761.38	1090.92
761.71	1093.50
762.04	1089.05
762.36	1079.22
762.69	1075.94
763.02	1064.48
763.35	1064.48
763.68	1067.28
764.01	1063.54
764.33	1067.52
764.66	1069.16
764.99	1066.82
765.32	1057.45
765.65	1065.88
765.97	1065.18
766.30	1073.14
766.63	1084.84
766.96	1100.99
767.28	1099.12
767.61	1089.52
767.94	1085.54
768.27	1067.99
768.59	1056.05
768.92	1066.11
769.25	1068.45
769.58	1066.11
769.90	1075.01
770.23	1084.84
770.56	1080.86
770.89	1095.14
771.21	1095.60
771.54	1100.05
771.87	1084.60
772.19	1076.41
772.52	1078.28
772.85	1079.46
773.17	1075.94
773.50	1082.26
773.83	1089.52
774.15	1083.90
774.48	1078.05
774.81	1080.39
775.13	1087.41
775.46	1083.67
775.79	1081.56
776.11	1088.12
776.44	1097.71
776.77	1094.90
777.09	1100.05
777.42	1103.80
777.74	1095.60
778.07	1080.39
778.40	1083.20
778.72	1078.05
779.05	1073.14
779.37	1084.84
779.70	1093.03
780.03	1082.50
780.35	1091.86
780.68	1092.09
781.00	1079.46
781.33	1077.82
781.65	1081.33
781.98	1082.97
782.31	1086.94
782.63	1098.88
782.96	1093.73
783.28	1098.41
783.61	1079.69
783.93	1073.14
784.26	1059.09
784.58	1059.79
784.91	1066.35
785.23	1077.58
785.56	1085.54
785.88	1100.29
786.21	1100.29
786.53	1087.88
786.86	1085.54
787.18	1078.28
787.51	1075.48
787.83	1076.65
788.16	1084.84
788.48	1086.48
788.81	1086.71
789.13	1088.12
789.46	1091.63
789.78	1089.99
790.10	1087.65
790.43	1091.39
790.75	1087.18
791.08	1082.26
791.40	1071.97
791.73	1068.92
792.05	1064.71
792.37	1072.43
792.70	1073.14
793.02	1076.88
793.35	1094.90
793.67	1097.48
793.99	1094.43
794.32	1087.88
794.64	1090.22
794.96	1078.75
795.29	1087.41
795.61	1078.52
795.93	1078.99
796.26	1081.09
796.58	1080.63
796.91	1076.18
797.23	1078.05
797.55	1086.24
797.87	1072.90
798.20	1065.65
798.52	1063.77
798.84	1063.31
799.17	1058.86
799.49	1070.09
799.81	1067.52
800.14	1068.22
800.46	1081.56
800.78	1086.71
801.10	1088.35
801.43	1089.52
801.75	1095.84
802.07	1098.65
802.40	1095.60
802.72	1098.88
803.04	1106.84
803.36	1099.12
803.69	1090.92
804.01	1088.82
804.33	1086.24
804.65	1082.03
804.97	1076.88
805.30	1072.20
805.62	1075.24
805.94	1079.69
806.26	1082.97
806.58	1091.16
806.91	1093.50
807.23	1094.67
807.55	1093.73
807.87	1099.82
808.19	1102.86
808.52	1091.63
808.84	1093.73
809.16	1086.24
809.48	1067.28
809.80	1066.82
810.12	1072.90
810.44	1065.41
810.77	1072.67
811.09	1086.01
811.41	1085.31
811.73	1089.99
812.05	1089.52
812.37	1089.29
812.69	1084.84
813.01	1086.48
813.33	1076.65
813.66	1082.97
813.98	1078.52
814.30	1082.97
814.62	1078.75
814.94	1088.58
815.26	1085.54
815.58	1071.03
815.90	1067.28
816.22	1064.01
816.54	1062.60
816.86	1057.69
817.18	1070.80
817.50	1076.88
817.82	1078.05
818.14	1083.67
818.46	1093.26
818.78	1103.33
819.10	1102.63
819.42	1098.65
819.74	1094.20
820.06	1090.92
820.38	1079.22
820.70	1077.58
821.02	1085.31
821.34	1071.97
821.66	1067.75
821.98	1065.65
822.30	1060.73
822.62	1056.52
822.94	1075.48
823.26	1092.80
823.58	1096.31
823.90	1088.12
824.22	1092.09
824.54	1087.41
824.86	1078.99
825.18	1071.03
825.50	1082.03
825.81	1078.52
826.13	1067.99
826.45	1050.90
826.77	1059.09
827.09	1055.35
827.41	1058.39
827.73	1059.33
828.05	1066.35
828.36	1075.01
828.68	1076.41
829.00	1068.45
829.32	1085.07
829.64	1097.48
829.96	1087.41
830.28	1091.39
830.59	1104.73
830.91	1093.50
831.23	1078.75
831.55	1077.58
831.87	1072.20
832.19	1069.39
832.50	1071.26
832.82	1083.20
833.14	1083.90
833.46	1098.88
833.78	1086.24
834.09	1084.84
834.41	1073.60
834.73	1078.75
835.05	1072.43
835.36	1073.60
835.68	1084.14
836.00	1093.97
836.32	1093.50
836.63	1091.16
836.95	1090.92
837.27	1085.77
837.59	1080.39
837.90	1083.67
838.22	1093.50
838.54	1105.20
838.85	1102.39
839.17	1116.20
839.49	1115.97
839.80	1105.67
840.12	1102.86
840.44	1108.71
840.76	1089.29
841.07	1087.65
841.39	1091.86
841.71	1080.39
842.02	1077.11
842.34	1084.14
842.65	1076.18
842.97	1070.80
843.29	1090.69
843.60	1094.67
843.92	1098.18
844.24	1100.75
844.55	1094.67
844.87	1091.39
845.18	1087.18
845.50	1084.84
845.82	1092.09
846.13	1093.50
846.45	1075.01
846.76	1074.31
847.08	1081.80
847.40	1081.33
847.71	1094.67
848.03	1102.39
848.34	1099.12
848.66	1093.26
848.97	1095.37
849.29	1089.05
849.60	1090.22
849.92	1093.97
850.24	1093.50
850.55	1086.24
850.87	1069.16
851.18	1059.33
851.50	1059.79
851.81	1050.90
852.13	1048.09
852.44	1061.43
852.76	1075.48
853.07	1069.16
853.39	1084.37
853.70	1090.46
854.01	1093.26
854.33	1081.09
854.64	1083.67
854.96	1070.09
855.27	1067.52
855.59	1065.65
855.90	1068.92
856.22	1067.75
856.53	1068.92
856.84	1059.79
857.16	1058.39
857.47	1067.05
857.79	1071.73
858.10	1074.31
858.41	1078.75
858.73	1082.97
859.04	1082.26
859.36	1083.43
859.67	1081.80
859.98	1075.94
860.30	1065.88
860.61	1069.86
860.92	1073.60
861.24	1081.56
861.55	1095.60
861.87	1113.16
862.18	1104.26
862.49	1097.48
862.81	1097.01
863.12	1092.56
863.43	1082.03
863.74	1083.43
864.06	1085.54
864.37	1080.63
864.68	1079.22
865.00	1080.39
865.31	1086.24
865.62	1083.20
865.94	1075.94
866.25	1075.24
866.56	1070.33
866.87	1059.33
867.19	1060.03
867.50	1067.52
867.81	1079.46
868.12	1090.92
868.44	1104.50
868.75	1108.48
869.06	1104.03
869.37	1092.56
869.68	1085.07
870.00	1082.73
870.31	1087.41
870.62	1092.80
870.93	1105.20
871.24	1103.33
871.56	1099.58
871.87	1094.43
872.18	1100.52
872.49	1093.03
872.80	1094.20
873.12	1094.43
873.43	1100.29
873.74	1098.18
874.05	1094.67
874.36	1091.86
874.67	1089.05
874.98	1087.41
875.29	1083.20
875.61	1079.69
875.92	1083.43
876.23	1088.82
876.54	1097.48
876.85	1106.14
877.16	1112.69
877.47	1110.82
877.78	1110.58
878.09	1093.26
878.40	1082.50
878.72	1086.24
879.03	1087.41
879.34	1084.60
879.65	1083.90
879.96	1092.80
880.27	1089.05
880.58	1095.60
880.89	1088.12
881.20	1090.22
881.51	1079.22
881.82	1074.54
882.13	1063.77
882.44	1071.73
882.75	1079.69
883.06	1070.09
883.37	1073.37
883.68	1085.31
883.99	1079.92
884.30	1073.84
884.61	1086.01
884.92	1089.52
885.23	1089.05
885.54	1088.58
885.85	1096.78
886.16	1098.65
886.47	1099.58
886.78	1098.18
887.08	1102.63
887.39	1087.18
887.70	1087.88
888.01	1092.09
888.32	1091.39
888.63	1095.60
888.94	1095.84
889.25	1092.56
889.56	1092.56
889.87	1091.86
890.17	1092.09
890.48	1087.88
890.79	1087.41
891.10	1086.24
891.41	1082.97
891.72	1071.73
892.03	1076.88
892.34	1083.20
892.64	1080.63
892.95	1077.11
893.26	1084.14
893.57	1078.99
893.88	1071.73
894.18	1066.11
894.49	1068.92
894.80	1071.26
895.11	1081.33
895.42	1079.46
895.72	1082.26
896.03	1087.18
896.34	1081.33
896.65	1072.90
896.96	1080.39
897.26	1084.14
897.57	1075.71
897.88	1067.05
898.19	1084.60
898.49	1072.90
898.80	1063.31
899.11	1070.33
899.41	1081.80
899.72	1079.92
900.03	1081.80
900.34	1085.07
900.64	1082.73
900.95	1076.65
901.26	1071.97
901.56	1076.88
901.87	1073.14
902.18	1070.09
902.48	1071.50
902.79	1068.22
903.10	1072.43
903.40	1067.52
903.71	1067.99
904.02	1068.69
904.32	1068.92
904.63	1069.86
904.94	1070.56
905.24	1069.16
905.55	1076.18
905.85	1075.71
906.16	1075.71
906.47	1084.60
906.77	1095.84
907.08	1092.56
907.38	1093.03
907.69	1092.33
908.00	1089.99
908.30	1079.22
908.61	1079.69
908.91	1073.60
909.22	1076.88
909.52	1074.31
909.83	1076.65
910.14	1069.39
910.44	1076.65
910.75	1071.50
911.05	1073.37
911.36	1079.46
911.66	1087.88
911.97	1090.46
912.27	1086.48
912.58	1097.01
912.88	1098.18
913.19	1090.92
913.49	1088.82
913.80	1093.26
914.10	1086.48
914.41	1077.58
914.71	1085.31
915.01	1086.71
915.32	1083.20
915.62	1072.90
915.93	1074.07
916.23	1070.09
916.54	1069.16
916.84	1070.33
917.15	1065.88
917.45	1072.20
917.75	1070.33
918.06	1071.50
918.36	1076.41
918.67	1099.12
918.97	1092.80
919.27	1101.69
919.58	1097.01
919.88	1091.63
920.18	1074.31
920.49	1073.84
920.79	1066.82
921.10	1080.39
921.40	1084.14
921.70	1089.05
922.01	1093.97
922.31	1098.65
922.61	1080.86
922.92	1071.26
923.22	1075.01
923.52	1067.28
923.82	1058.39
924.13	1055.35
924.43	1060.50
924.73	1061.20
925.04	1066.35
925.34	1070.56
925.64	1083.20
925.94	1081.56
926.25	1079.22
926.55	1071.26
926.85	1075.01
927.15	1073.37
927.46	1085.77
927.76	1086.48
928.06	1095.14
928.36	1084.84
928.67	1080.39
928.97	1071.73
929.27	1069.86
929.57	1068.22
929.87	1086.24
930.18	1084.14
930.48	1083.90
930.78	1078.28
931.08	1076.88
931.38	1067.05
931.69	1069.39
931.99	1065.65
932.29	1067.75
932.59	1061.90
932.89	1059.33
933.19	1050.67
933.49	1049.73
933.80	1061.20
934.10	1070.33
934.40	1073.14
934.70	1090.22
935.00	1094.20
935.30	1079.22
935.60	1082.26
935.90	1079.46
936.20	1077.82
936.50	1084.14
936.81	1088.82
937.11	1081.80
937.41	1083.90
937.71	1083.67
938.01	1087.88
938.31	1095.84
938.61	1106.61
938.91	1098.41
939.21	1086.24
939.51	1078.52
939.81	1078.75
940.11	1063.07
940.41	1070.56
940.71	1083.20
941.01	1078.05
941.31	1077.58
941.61	1083.43
941.91	1086.48
942.21	1084.14
942.51	1087.41
942.81	1085.77
943.11	1083.67
943.41	1079.69
943.71	1083.67
944.01	1084.37
944.31	1081.33
944.61	1082.73
944.90	1087.65
945.20	1081.80
945.50	1072.43
945.80	1079.46
946.10	1083.67
946.40	1086.24
946.70	1084.60
947.00	1085.77
947.30	1083.90
947.60	1073.37
947.89	1071.50
948.19	1071.26
948.49	1076.88
948.79	1068.22
949.09	1076.65
949.39	1083.20
949.69	1086.71
949.98	1083.43
950.28	1086.24
950.58	1084.37
950.88	1071.26
951.18	1064.01
951.48	1061.67
951.77	1059.33
952.07	1062.37
952.37	1070.56
952.67	1077.35
952.97	1084.14
953.26	1081.56
953.56	1073.14
953.86	1071.03
954.16	1072.20
954.45	1077.11
954.75	1088.58
955.05	1098.65
955.35	1098.18
955.64	1097.48
955.94	1096.54
956.24	1093.03
956.54	1091.39
956.83	1085.54
957.13	1082.73
957.43	1075.48
957.72	1070.56
958.02	1068.69
958.32	1080.16
958.61	1079.46
958.91	1073.60
959.21	1080.86
959.50	1076.18
959.80	1071.73
960.10	1072.43
960.39	1078.05
960.69	1066.11
960.99	1067.05
961.28	1072.67
961.58	1076.41
961.87	1082.26
962.17	1099.12
962.47	1102.86
962.76	1091.16
963.06	1093.26
963.36	1093.50
963.65	1083.67
963.95	1086.01
964.24	1089.75
964.54	1081.09
964.83	1083.20
965.13	1081.33
965.42	1075.71
965.72	1071.26
966.02	1078.05
966.31	1072.20
966.61	1073.60
966.90	1077.58
967.20	1079.69
967.49	1075.94
967.79	1088.58
968.08	1094.67
968.38	1097.71
968.67	1102.63
968.97	1100.29
969.26	1086.94
969.56	1084.37
969.85	1086.24
970.15	1090.22
970.44	1092.80
970.74	1094.43
971.03	1093.50
971.32	1097.48
971.62	1085.54
971.91	1088.82
972.21	1090.46
972.50	1090.92
972.80	1077.35
973.09	1080.86
973.38	1078.28
973.68	1075.48
973.97	1069.39
974.27	1068.92
974.56	1071.97
974.85	1073.60
975.15	1068.45
975.44	1071.73
975.73	1074.31
976.03	1069.16
976.32	1055.58
976.61	1063.07
976.91	1061.20
977.20	1064.94
977.49	1065.88
977.79	1072.90
978.08	1066.58
978.37	1067.28
978.67	1063.31
978.96	1062.60
979.25	1071.97
979.55	1073.84
979.84	1071.03
980.13	1069.16
980.42	1080.39
980.72	1069.86
981.01	1074.07
981.30	1086.01
981.59	1087.18
981.89	1077.11
982.18	1077.58
982.47	1078.28
982.76	1071.50
983.06	1078.05
983.35	1078.52
983.64	1081.33
983.93	1078.28
984.22	1081.33
984.52	1089.99
984.81	1084.37
985.10	1082.73
985.39	1080.39
985.68	1087.88
985.97	1074.54
986.27	1081.56
986.56	1087.41
986.85	1093.97
987.14	1080.63
987.43	1082.73
987.72	1086.71
988.01	1085.77
988.31	1089.05
988.60	1088.58
988.89	1093.26
989.18	1095.37
989.47	1096.78
989.76	1096.07
990.05	1097.71
990.34	1082.97
990.63	1065.65
990.92	1060.26
991.21	1048.56
991.51	1045.52
991.80	1059.79
992.09	1077.11
992.38	1076.18
992.67	1078.05
992.96	1081.56
993.25	1072.90
993.54	1073.14
993.83	1078.99
994.12	1086.48
994.41	1093.50
994.70	1100.29
994.99	1098.65
995.28	1095.60
995.57	1093.50
995.86	1094.43
996.15	1091.16
996.44	1084.84
996.73	1083.67
997.02	1084.84
997.31	1078.52
997.59	1078.28
997.88	1077.58
998.17	1079.46
998.46	1082.50
998.75	1082.03
999.04	1086.48
999.33	1089.99
999.62	1090.46
999.91	1088.12
1000.20	1090.92
1000.49	1090.69
1000.77	1084.14
1001.06	1082.26
1001.35	1090.69
1001.64	1087.88
1001.93	1082.50
1002.22	1095.60
1002.51	1095.14
1002.79	1086.01
1003.08	1087.18
1003.37	1087.18
1003.66	1072.43
1003.95	1073.60
1004.23	1064.01
1004.52	1060.26
1004.81	1063.31
1005.10	1067.75
1005.39	1068.69
1005.67	1071.03
1005.96	1072.90
1006.25	1071.73
1006.54	1067.05
1006.83	1061.20
1007.11	1069.86
1007.40	1072.90
1007.69	1059.09
1007.97	1062.84
1008.26	1067.75
1008.55	1069.62
1008.84	1073.14
1009.12	1086.01
1009.41	1098.18
1009.70	1099.35
1009.98	1101.22
1010.27	1099.82
1010.56	1104.97
1010.85	1097.24
1011.13	1088.58
1011.42	1084.37
1011.71	1086.71
1011.99	1079.69
1012.28	1075.01
1012.56	1086.48
1012.85	1088.35
1013.14	1082.26
1013.42	1089.05
1013.71	1089.99
1014.00	1083.67
1014.28	1081.09
1014.57	1078.99
1014.85	1073.84
1015.14	1067.28
1015.43	1072.90
1015.71	1068.92
1016.00	1064.24
1016.28	1072.67
1016.57	1076.65
1016.85	1069.39
1017.14	1067.05
1017.43	1080.39
1017.71	1074.77
1018.00	1068.92
1018.28	1079.46
1018.57	1078.52
1018.85	1064.48
1019.14	1058.16
1019.42	1069.86
1019.71	1055.35
1019.99	1063.31
1020.28	1061.20
1020.56	1069.62
1020.85	1078.28
1021.13	1090.92
1021.42	1095.14
1021.70	1110.82
1021.99	1105.67
1022.27	1087.18
1022.55	1075.48
1022.84	1033.35
>>>>>End Processed Spectral Data<<<<<
