SpectraSuite Data File
++++++++++++++++++++++++++++++++++++
Date: Mon Aug 26 10:25:54 PDT 2019
User: corrico
Dark Spectrum Present: No
Reference Spectrum Present: No
Number of Sampled Component Spectra: 1
Spectrometers: USB2+H06089
Integration Time (usec): 10000 (USB2+H06089)
Spectra Averaged: 2 (USB2+H06089)
Boxcar Smoothing: 2 (USB2+H06089)
Correct for Electrical Dark: No (USB2+H06089)
Strobe/Lamp Enabled: No (USB2+H06089)
Correct for Detector Non-linearity: No (USB2+H06089)
Correct for Stray Light: No (USB2+H06089)
Number of Pixels in Processed Spectrum: 2048
>>>>>Begin Processed Spectral Data<<<<<
339.70	990.05
340.07	990.05
340.45	967.34
340.82	958.22
341.19	943.24
341.57	939.02
341.94	934.34
342.31	935.51
342.69	933.17
343.06	928.72
343.43	914.45
343.81	908.13
344.18	910.47
344.55	913.28
344.93	923.11
345.30	925.45
345.67	932.24
346.04	930.13
346.42	929.89
346.79	923.34
347.16	933.64
347.54	952.13
347.91	973.66
348.28	988.41
348.65	1006.43
349.03	1027.96
349.40	1021.18
349.77	1028.90
350.14	1026.32
350.52	1032.18
350.89	1029.37
351.26	1037.79
351.63	1038.73
352.01	1049.73
352.38	1051.84
352.75	1053.48
353.12	1059.56
353.50	1067.52
353.87	1069.86
354.24	1075.94
354.61	1079.46
354.98	1081.09
355.36	1083.20
355.73	1087.88
356.10	1092.56
356.47	1100.52
356.84	1104.50
357.22	1094.20
357.59	1086.94
357.96	1088.58
358.33	1076.65
358.70	1067.99
359.08	1069.86
359.45	1060.96
359.82	1064.94
360.19	1070.09
360.56	1074.07
360.94	1070.80
361.31	1078.52
361.68	1073.14
362.05	1071.26
362.42	1065.88
362.79	1067.05
363.16	1068.45
363.54	1067.75
363.91	1066.58
364.28	1070.80
364.65	1084.60
365.02	1081.33
365.39	1072.90
365.76	1069.39
366.14	1068.69
366.51	1056.28
366.88	1053.94
367.25	1057.22
367.62	1066.58
367.99	1069.16
368.36	1065.41
368.73	1071.97
369.10	1075.01
369.48	1071.26
369.85	1066.11
370.22	1076.18
370.59	1076.65
370.96	1072.43
371.33	1072.20
371.70	1074.54
372.07	1065.41
372.44	1067.52
372.81	1080.16
373.18	1077.35
373.55	1084.84
373.93	1079.46
374.30	1077.11
374.67	1078.52
375.04	1080.63
375.41	1066.11
375.78	1071.73
376.15	1074.77
376.52	1063.77
376.89	1068.69
377.26	1082.50
377.63	1080.16
378.00	1077.35
378.37	1078.28
378.74	1070.33
379.11	1058.39
379.48	1067.05
379.85	1064.24
380.22	1063.54
380.59	1058.39
380.96	1060.96
381.33	1045.05
381.70	1052.30
382.07	1050.90
382.44	1060.50
382.81	1060.50
383.18	1068.69
383.55	1060.96
383.92	1064.94
384.29	1070.33
384.66	1075.71
385.03	1073.14
385.40	1075.24
385.77	1073.14
386.14	1062.37
386.51	1058.86
386.88	1064.94
387.25	1062.60
387.62	1058.62
387.99	1065.65
388.36	1070.56
388.73	1067.28
389.10	1066.58
389.46	1072.43
389.83	1068.92
390.20	1068.69
390.57	1070.56
390.94	1074.31
391.31	1071.03
391.68	1066.58
392.05	1061.20
392.42	1056.52
392.79	1048.33
393.16	1045.52
393.53	1053.94
393.89	1059.09
394.26	1061.43
394.63	1075.01
395.00	1080.39
395.37	1067.99
395.74	1063.77
396.11	1070.56
396.48	1054.65
396.84	1055.11
397.21	1068.92
397.58	1072.43
397.95	1061.90
398.32	1076.18
398.69	1080.39
399.06	1082.26
399.42	1078.75
399.79	1088.58
400.16	1086.01
400.53	1070.56
400.90	1066.82
401.27	1063.77
401.64	1058.62
402.00	1060.26
402.37	1068.92
402.74	1063.31
403.11	1065.88
403.48	1080.86
403.84	1081.33
404.21	1082.97
404.58	1089.29
404.95	1092.33
405.32	1078.52
405.68	1082.03
406.05	1081.33
406.42	1081.56
406.79	1079.46
407.16	1083.90
407.52	1077.11
407.89	1067.75
408.26	1060.03
408.63	1061.67
408.99	1058.86
409.36	1054.41
409.73	1067.52
410.10	1076.18
410.47	1075.24
410.83	1064.71
411.20	1066.58
411.57	1059.33
411.94	1056.28
412.30	1061.43
412.67	1066.35
413.04	1075.01
413.40	1085.07
413.77	1089.52
414.14	1080.16
414.51	1082.50
414.87	1084.84
415.24	1083.20
415.61	1082.50
415.97	1092.33
416.34	1089.99
416.71	1086.71
417.08	1083.67
417.44	1079.46
417.81	1071.26
418.18	1072.67
418.54	1060.73
418.91	1063.54
419.28	1060.26
419.64	1069.86
420.01	1074.31
420.38	1087.65
420.74	1085.77
421.11	1087.65
421.48	1086.01
421.84	1082.03
422.21	1077.35
422.58	1083.20
422.94	1080.39
423.31	1073.84
423.68	1078.28
424.04	1079.46
424.41	1072.90
424.77	1077.58
425.14	1094.67
425.51	1095.37
425.87	1091.16
426.24	1092.33
426.61	1092.80
426.97	1085.77
427.34	1082.26
427.70	1082.03
428.07	1074.77
428.44	1064.24
428.80	1057.22
429.17	1063.31
429.53	1063.07
429.90	1066.58
430.27	1080.63
430.63	1087.88
431.00	1083.43
431.36	1100.75
431.73	1101.46
432.09	1096.07
432.46	1084.37
432.83	1092.56
433.19	1089.29
433.56	1092.56
433.92	1095.84
434.29	1103.09
434.65	1095.14
435.02	1087.88
435.38	1088.82
435.75	1086.71
436.11	1084.37
436.48	1085.77
436.84	1067.99
437.21	1060.03
437.57	1060.96
437.94	1058.39
438.30	1051.60
438.67	1059.79
439.03	1061.20
439.40	1059.56
439.76	1065.65
440.13	1082.97
440.49	1093.26
440.86	1097.24
441.22	1097.01
441.59	1088.58
441.95	1077.35
442.32	1063.77
442.68	1064.48
443.05	1067.28
443.41	1071.97
443.78	1073.37
444.14	1076.88
444.51	1075.24
444.87	1070.80
445.24	1065.41
445.60	1064.24
445.96	1069.62
446.33	1056.52
446.69	1062.84
447.06	1067.28
447.42	1072.20
447.79	1068.92
448.15	1080.39
448.51	1076.18
448.88	1088.58
449.24	1081.09
449.61	1089.99
449.97	1089.29
450.33	1090.69
450.70	1073.37
451.06	1073.37
451.43	1073.37
451.79	1069.16
452.15	1065.88
452.52	1071.50
452.88	1073.14
453.24	1066.82
453.61	1062.37
453.97	1070.09
454.34	1077.11
454.70	1077.35
455.06	1078.99
455.43	1092.09
455.79	1078.05
456.15	1074.54
456.52	1068.22
456.88	1056.75
457.24	1056.52
457.61	1068.92
457.97	1076.88
458.33	1087.88
458.70	1108.24
459.06	1111.05
459.42	1104.50
459.79	1082.03
460.15	1079.22
460.51	1067.28
460.88	1069.86
461.24	1073.14
461.60	1079.22
461.96	1080.16
462.33	1079.22
462.69	1072.43
463.05	1066.35
463.42	1068.92
463.78	1068.92
464.14	1073.60
464.50	1070.56
464.87	1074.77
465.23	1078.05
465.59	1071.03
465.95	1072.43
466.32	1075.48
466.68	1084.14
467.04	1084.84
467.40	1090.22
467.77	1088.82
468.13	1091.63
468.49	1082.50
468.85	1090.92
469.22	1095.60
469.58	1093.97
469.94	1095.14
470.30	1095.37
470.66	1093.97
471.03	1097.48
471.39	1110.12
471.75	1112.46
472.11	1109.18
472.47	1102.63
472.84	1096.54
473.20	1075.48
473.56	1070.33
473.92	1075.94
474.28	1068.92
474.65	1061.67
475.01	1072.43
475.37	1062.84
475.73	1062.60
476.09	1058.86
476.45	1066.82
476.81	1073.37
477.18	1080.63
477.54	1078.28
477.90	1086.94
478.26	1080.86
478.62	1063.77
478.98	1055.35
479.34	1053.94
479.71	1057.45
480.07	1055.35
480.43	1066.35
480.79	1081.80
481.15	1088.12
481.51	1090.22
481.87	1094.90
482.23	1089.29
482.59	1081.80
482.96	1067.28
483.32	1062.37
483.68	1061.20
484.04	1063.31
484.40	1062.14
484.76	1069.16
485.12	1065.65
485.48	1074.07
485.84	1075.24
486.20	1077.58
486.56	1087.41
486.92	1083.90
487.28	1085.54
487.64	1095.37
488.00	1096.78
488.37	1091.63
488.73	1097.71
489.09	1075.94
489.45	1064.94
489.81	1064.24
490.17	1053.71
490.53	1057.92
490.89	1062.14
491.25	1062.37
491.61	1064.48
491.97	1074.54
492.33	1070.33
492.69	1079.69
493.05	1082.50
493.41	1072.43
493.77	1066.35
494.13	1068.69
494.49	1073.37
494.85	1084.60
495.21	1098.18
495.57	1102.86
495.93	1100.52
496.29	1098.18
496.64	1085.77
497.00	1076.18
497.36	1085.54
497.72	1088.58
498.08	1094.90
498.44	1099.12
498.80	1099.35
499.16	1093.73
499.52	1080.39
499.88	1076.41
500.24	1075.94
500.60	1082.50
500.96	1088.35
501.32	1098.88
501.68	1098.41
502.03	1095.37
502.39	1089.52
502.75	1077.11
503.11	1084.14
503.47	1074.07
503.83	1087.65
504.19	1085.77
504.55	1088.58
504.91	1076.65
505.26	1083.90
505.62	1064.48
505.98	1069.16
506.34	1072.67
506.70	1075.71
507.06	1076.65
507.42	1088.12
507.78	1085.07
508.13	1079.46
508.49	1083.20
508.85	1081.80
509.21	1074.31
509.57	1075.71
509.93	1079.22
510.28	1081.56
510.64	1080.63
511.00	1088.35
511.36	1083.90
511.72	1082.26
512.07	1092.56
512.43	1095.84
512.79	1097.95
513.15	1108.48
513.51	1109.65
513.86	1099.82
514.22	1098.41
514.58	1079.69
514.94	1076.41
515.30	1079.46
515.65	1080.16
516.01	1078.75
516.37	1088.58
516.73	1097.01
517.08	1090.46
517.44	1097.24
517.80	1097.01
518.16	1100.29
518.51	1091.39
518.87	1105.20
519.23	1098.88
519.59	1099.12
519.94	1108.71
520.30	1111.52
520.66	1101.46
521.01	1105.44
521.37	1110.35
521.73	1089.05
522.09	1078.05
522.44	1075.71
522.80	1063.54
523.16	1061.67
523.51	1074.77
523.87	1092.33
524.23	1104.73
524.58	1106.37
524.94	1108.24
525.30	1104.97
525.65	1094.90
526.01	1080.16
526.37	1082.03
526.72	1075.01
527.08	1078.99
527.44	1078.28
527.79	1098.41
528.15	1103.33
528.51	1109.88
528.86	1114.33
529.22	1112.46
529.58	1093.03
529.93	1089.75
530.29	1094.67
530.65	1092.33
531.00	1098.65
531.36	1099.82
531.71	1098.18
532.07	1096.54
532.43	1093.50
532.78	1094.43
533.14	1097.24
533.49	1107.07
533.85	1099.58
534.21	1106.61
534.56	1104.03
534.92	1113.86
535.27	1106.61
535.63	1111.99
535.98	1099.58
536.34	1097.95
536.69	1088.82
537.05	1085.54
537.41	1088.82
537.76	1093.50
538.12	1098.88
538.47	1098.18
538.83	1094.90
539.18	1091.63
539.54	1097.01
539.89	1097.01
540.25	1098.65
540.60	1105.44
540.96	1104.03
541.31	1101.92
541.67	1095.37
542.02	1101.69
542.38	1100.99
542.73	1105.20
543.09	1097.48
543.44	1102.86
543.80	1098.65
544.15	1096.31
544.51	1088.58
544.86	1092.80
545.22	1088.58
545.57	1091.63
545.93	1097.48
546.28	1092.56
546.64	1095.14
546.99	1100.05
547.35	1090.46
547.70	1094.43
548.05	1107.54
548.41	1109.18
548.76	1105.90
549.12	1105.67
549.47	1092.56
549.83	1083.20
550.18	1072.43
550.53	1071.50
550.89	1079.92
551.24	1087.18
551.60	1094.20
551.95	1094.43
552.30	1098.65
552.66	1100.29
553.01	1090.46
553.37	1084.84
553.72	1082.97
554.07	1071.97
554.43	1072.43
554.78	1078.75
555.13	1094.20
555.49	1103.56
555.84	1113.16
556.19	1109.18
556.55	1103.56
556.90	1087.88
557.26	1085.77
557.61	1082.73
557.96	1076.88
558.32	1076.18
558.67	1081.09
559.02	1082.73
559.37	1084.37
559.73	1082.50
560.08	1085.07
560.43	1077.82
560.79	1078.28
561.14	1075.24
561.49	1080.39
561.85	1089.99
562.20	1091.16
562.55	1089.99
562.90	1093.97
563.26	1091.86
563.61	1081.33
563.96	1080.63
564.32	1080.39
564.67	1076.65
565.02	1081.09
565.37	1094.43
565.73	1086.71
566.08	1088.12
566.43	1078.52
566.78	1081.09
567.14	1066.82
567.49	1075.24
567.84	1076.65
568.19	1091.16
568.54	1089.29
568.90	1089.52
569.25	1083.20
569.60	1071.26
569.95	1066.58
570.31	1069.39
570.66	1073.60
571.01	1079.69
571.36	1087.65
571.71	1084.60
572.06	1083.43
572.42	1088.35
572.77	1094.90
573.12	1095.37
573.47	1098.65
573.82	1098.18
574.18	1098.41
574.53	1093.73
574.88	1090.92
575.23	1088.82
575.58	1083.90
575.93	1073.60
576.28	1071.97
576.64	1076.41
576.99	1075.94
577.34	1077.58
577.69	1084.60
578.04	1083.20
578.39	1086.48
578.74	1087.88
579.09	1091.16
579.44	1082.26
579.80	1081.09
580.15	1086.48
580.50	1090.69
580.85	1086.48
581.20	1099.35
581.55	1108.48
581.90	1098.65
582.25	1094.90
582.60	1093.26
582.95	1083.90
583.30	1081.56
583.65	1078.52
584.00	1074.31
584.35	1076.41
584.71	1075.24
585.06	1073.60
585.41	1078.28
585.76	1089.52
586.11	1085.54
586.46	1097.24
586.81	1089.05
587.16	1085.77
587.51	1074.54
587.86	1067.28
588.21	1059.56
588.56	1058.62
588.91	1054.41
589.26	1051.13
589.61	1058.86
589.96	1070.80
590.31	1081.56
590.66	1084.84
591.01	1092.33
591.36	1087.18
591.71	1071.97
592.06	1063.31
592.41	1061.20
592.76	1058.86
593.10	1066.58
593.45	1058.39
593.80	1064.71
594.15	1067.05
594.50	1075.48
594.85	1071.26
595.20	1089.05
595.55	1082.97
595.90	1085.07
596.25	1073.37
596.60	1072.90
596.95	1068.92
597.30	1078.99
597.64	1130.24
597.99	1133.29
598.34	1133.52
598.69	1133.99
599.04	1124.39
599.39	1071.50
599.74	1075.01
600.09	1084.14
600.44	1081.09
600.78	1091.16
601.13	1099.12
601.48	1096.07
601.83	1092.56
602.18	1092.56
602.53	1078.52
602.88	1065.18
603.22	1056.99
603.57	1049.96
603.92	1056.05
604.27	1062.14
604.62	1064.24
604.97	1074.54
605.31	1080.86
605.66	1073.37
606.01	1086.24
606.36	1081.33
606.71	1070.56
607.05	1072.43
607.40	1068.45
607.75	1070.56
608.10	1067.99
608.44	1082.03
608.79	1084.60
609.14	1092.80
609.49	1078.75
609.84	1090.22
610.18	1097.95
610.53	1095.60
610.88	1098.88
611.23	1103.09
611.57	1100.52
611.92	1081.80
612.27	1079.69
612.62	1075.71
612.96	1073.84
613.31	1071.97
613.66	1077.35
614.00	1081.09
614.35	1088.58
614.70	1095.60
615.05	1098.41
615.39	1099.35
615.74	1092.80
616.09	1083.90
616.43	1077.82
616.78	1076.41
617.13	1076.88
617.47	1075.48
617.82	1070.80
618.17	1064.24
618.51	1061.20
618.86	1055.82
619.21	1060.03
619.55	1071.50
619.90	1068.45
620.25	1072.67
620.59	1082.97
620.94	1084.60
621.29	1081.33
621.63	1104.50
621.98	1104.50
622.32	1092.33
622.67	1091.16
623.02	1084.84
623.36	1071.50
623.71	1075.94
624.05	1088.82
624.40	1091.86
624.75	1100.99
625.09	1092.80
625.44	1088.82
625.78	1083.43
626.13	1085.07
626.48	1084.84
626.82	1090.46
627.17	1091.63
627.51	1101.22
627.86	1102.39
628.20	1086.24
628.55	1089.75
628.89	1088.35
629.24	1084.60
629.58	1074.54
629.93	1081.33
630.28	1080.39
630.62	1084.14
630.97	1078.05
631.31	1077.82
631.66	1085.77
632.00	1085.54
632.35	1080.16
632.69	1072.90
633.04	1068.92
633.38	1063.31
633.73	1053.24
634.07	1060.03
634.42	1069.16
634.76	1075.71
635.11	1084.14
635.45	1100.52
635.79	1104.97
636.14	1106.37
636.48	1111.99
636.83	1104.73
637.17	1101.46
637.52	1094.67
637.86	1092.80
638.21	1090.22
638.55	1095.60
638.89	1096.31
639.24	1089.05
639.58	1090.22
639.93	1076.41
640.27	1068.69
640.61	1061.20
640.96	1067.75
641.30	1063.54
641.65	1076.65
641.99	1080.39
642.33	1089.05
642.68	1078.75
643.02	1081.80
643.37	1078.05
643.71	1086.01
644.05	1082.97
644.40	1091.16
644.74	1090.22
645.08	1087.18
645.43	1080.16
645.77	1082.03
646.11	1074.77
646.46	1075.01
646.80	1084.37
647.14	1092.80
647.49	1090.22
647.83	1094.43
648.17	1093.97
648.52	1088.35
648.86	1077.35
649.20	1078.52
649.55	1083.20
649.89	1077.82
650.23	1079.69
650.57	1072.67
650.92	1063.77
651.26	1063.31
651.60	1067.75
651.95	1064.01
652.29	1067.28
652.63	1077.35
652.97	1083.67
653.32	1085.07
653.66	1091.39
654.00	1098.18
654.34	1092.80
654.69	1080.86
655.03	1083.90
655.37	1080.39
655.71	1085.54
656.05	1082.03
656.40	1082.03
656.74	1074.31
657.08	1072.90
657.42	1062.14
657.76	1069.39
658.11	1074.54
658.45	1077.82
658.79	1080.16
659.13	1078.75
659.47	1072.43
659.82	1071.73
660.16	1072.20
660.50	1068.92
660.84	1070.09
661.18	1072.90
661.52	1081.09
661.87	1072.20
662.21	1071.97
662.55	1079.69
662.89	1081.33
663.23	1079.46
663.57	1085.54
663.91	1090.22
664.25	1083.67
664.60	1082.50
664.94	1082.03
665.28	1081.56
665.62	1075.48
665.96	1077.58
666.30	1078.28
666.64	1070.80
666.98	1073.60
667.32	1078.75
667.66	1076.88
668.01	1075.94
668.35	1083.20
668.69	1079.22
669.03	1086.71
669.37	1098.18
669.71	1096.31
670.05	1091.86
670.39	1100.99
670.73	1091.63
671.07	1075.94
671.41	1071.03
671.75	1056.28
672.09	1056.75
672.43	1056.75
672.77	1065.18
673.11	1071.03
673.45	1086.94
673.79	1087.41
674.13	1094.43
674.47	1096.07
674.81	1097.71
675.15	1090.69
675.49	1093.50
675.83	1096.07
676.17	1089.99
676.51	1087.18
676.85	1090.22
677.19	1080.39
677.53	1070.09
677.87	1069.16
678.21	1071.26
678.55	1080.86
678.89	1081.56
679.23	1084.14
679.57	1082.26
679.90	1085.31
680.24	1071.97
680.58	1075.94
680.92	1078.05
681.26	1078.05
681.60	1074.07
681.94	1084.14
682.28	1087.41
682.62	1087.41
682.96	1091.86
683.29	1085.54
683.63	1077.82
683.97	1062.37
684.31	1053.94
684.65	1055.35
684.99	1068.45
685.33	1079.69
685.67	1091.63
686.00	1091.86
686.34	1094.90
686.68	1085.77
687.02	1079.46
687.36	1072.43
687.70	1082.97
688.03	1095.37
688.37	1098.18
688.71	1101.69
689.05	1111.52
689.39	1122.75
689.72	1100.05
690.06	1093.50
690.40	1075.71
690.74	1069.86
691.08	1056.75
691.41	1060.73
691.75	1070.56
692.09	1080.63
692.43	1071.97
692.76	1079.22
693.10	1085.77
693.44	1077.11
693.78	1081.33
694.11	1087.18
694.45	1077.58
694.79	1071.26
695.13	1079.92
695.46	1081.09
695.80	1083.43
696.14	1083.43
696.48	1082.97
696.81	1087.41
697.15	1078.05
697.49	1076.18
697.82	1079.92
698.16	1093.97
698.50	1074.07
698.83	1075.01
699.17	1078.52
699.51	1071.50
699.84	1057.92
700.18	1074.54
700.52	1071.97
700.85	1072.20
701.19	1075.01
701.53	1075.48
701.86	1078.28
702.20	1093.26
702.54	1089.99
702.87	1091.16
703.21	1095.60
703.55	1090.46
703.88	1086.94
704.22	1093.03
704.55	1098.18
704.89	1096.54
705.23	1091.86
705.56	1084.60
705.90	1081.80
706.23	1068.92
706.57	1072.20
706.91	1069.62
707.24	1078.05
707.58	1078.28
707.91	1075.94
708.25	1069.16
708.58	1067.28
708.92	1061.90
709.26	1060.73
709.59	1062.60
709.93	1063.77
710.26	1074.54
710.60	1079.46
710.93	1075.01
711.27	1082.97
711.60	1090.22
711.94	1087.41
712.27	1085.77
712.61	1100.99
712.94	1099.82
713.28	1090.22
713.61	1092.56
713.95	1087.88
714.28	1093.97
714.62	1091.16
714.95	1101.69
715.29	1100.75
715.62	1098.88
715.96	1080.16
716.29	1087.65
716.63	1075.71
716.96	1075.71
717.29	1085.07
717.63	1094.43
717.96	1089.05
718.30	1089.75
718.63	1087.41
718.97	1084.84
719.30	1079.46
719.63	1080.63
719.97	1080.16
720.30	1080.63
720.64	1079.69
720.97	1075.48
721.30	1070.09
721.64	1071.97
721.97	1071.26
722.31	1075.48
722.64	1078.28
722.97	1087.88
723.31	1096.54
723.64	1090.92
723.97	1086.48
724.31	1084.60
724.64	1068.92
724.98	1066.35
725.31	1069.16
725.64	1063.54
725.98	1061.90
726.31	1081.33
726.64	1080.63
726.97	1080.63
727.31	1088.35
727.64	1091.86
727.97	1087.41
728.31	1084.60
728.64	1087.41
728.97	1090.46
729.31	1094.90
729.64	1097.71
729.97	1099.35
730.30	1100.29
730.64	1097.71
730.97	1087.65
731.30	1078.75
731.63	1072.90
731.97	1065.41
732.30	1056.28
732.63	1062.60
732.96	1067.05
733.30	1084.37
733.63	1093.97
733.96	1106.37
734.29	1101.92
734.63	1098.41
734.96	1082.03
735.29	1082.97
735.62	1076.18
735.95	1078.75
736.29	1066.35
736.62	1065.65
736.95	1051.13
737.28	1048.56
737.61	1052.30
737.94	1067.28
738.28	1057.92
738.61	1070.80
738.94	1075.71
739.27	1072.90
739.60	1070.80
739.93	1089.52
740.27	1086.24
740.60	1081.33
740.93	1079.92
741.26	1082.26
741.59	1080.16
741.92	1087.41
742.25	1095.84
742.58	1092.09
742.91	1087.18
743.25	1082.73
743.58	1066.82
743.91	1068.22
744.24	1071.97
744.57	1076.18
744.90	1073.60
745.23	1079.69
745.56	1067.99
745.89	1071.50
746.22	1063.77
746.55	1069.86
746.88	1080.16
747.21	1087.18
747.54	1096.78
747.87	1099.35
748.20	1102.39
748.53	1096.78
748.87	1097.95
749.20	1079.69
749.53	1089.29
749.86	1088.35
750.19	1095.14
750.52	1091.63
750.85	1093.50
751.18	1084.84
751.51	1088.82
751.84	1076.88
752.16	1088.12
752.49	1095.14
752.82	1097.48
753.15	1087.88
753.48	1088.12
753.81	1075.24
754.14	1071.03
754.47	1070.80
754.80	1067.52
755.13	1069.86
755.46	1077.35
755.79	1081.80
756.12	1083.20
756.45	1088.82
756.78	1086.94
757.11	1088.82
757.43	1081.09
757.76	1080.63
758.09	1080.39
758.42	1076.65
758.75	1065.88
759.08	1064.71
759.41	1065.88
759.74	1071.26
760.07	1076.18
760.39	1085.31
760.72	1104.26
761.05	1108.48
761.38	1095.14
761.71	1094.43
762.04	1086.71
762.36	1075.24
762.69	1063.31
763.02	1075.94
763.35	1089.75
763.68	1089.75
764.01	1089.75
764.33	1090.92
764.66	1084.14
764.99	1076.88
765.32	1077.11
765.65	1072.43
765.97	1075.71
766.30	1085.77
766.63	1076.41
766.96	1073.60
767.28	1071.50
767.61	1072.67
767.94	1068.69
768.27	1070.56
768.59	1075.71
768.92	1075.48
769.25	1079.92
769.58	1078.05
769.90	1086.71
770.23	1085.31
770.56	1092.33
770.89	1089.52
771.21	1092.09
771.54	1082.26
771.87	1082.97
772.19	1078.99
772.52	1070.09
772.85	1062.84
773.17	1064.01
773.50	1066.58
773.83	1073.14
774.15	1075.94
774.48	1077.35
774.81	1078.75
775.13	1070.56
775.46	1064.01
775.79	1066.82
776.11	1064.01
776.44	1066.58
776.77	1076.18
777.09	1077.35
777.42	1078.99
777.74	1082.97
778.07	1078.99
778.40	1077.82
778.72	1074.54
779.05	1067.05
779.37	1063.54
779.70	1073.60
780.03	1071.50
780.35	1075.01
780.68	1075.24
781.00	1077.82
781.33	1073.84
781.65	1079.46
781.98	1073.37
782.31	1079.92
782.63	1080.16
782.96	1078.75
783.28	1074.07
783.61	1079.69
783.93	1077.11
784.26	1078.75
784.58	1076.41
784.91	1076.41
785.23	1085.31
785.56	1097.01
785.88	1086.48
786.21	1092.80
786.53	1096.54
786.86	1098.41
787.18	1095.84
787.51	1105.44
787.83	1103.80
788.16	1098.41
788.48	1096.07
788.81	1094.20
789.13	1097.71
789.46	1093.26
789.78	1101.46
790.10	1092.09
790.43	1093.97
790.75	1092.80
791.08	1092.56
791.40	1090.46
791.73	1103.33
792.05	1106.14
792.37	1101.69
792.70	1105.44
793.02	1095.14
793.35	1085.54
793.67	1072.43
793.99	1072.90
794.32	1067.75
794.64	1062.37
794.96	1060.26
795.29	1065.18
795.61	1067.52
795.93	1068.45
796.26	1065.65
796.58	1057.45
796.91	1064.94
797.23	1071.03
797.55	1067.75
797.87	1074.07
798.20	1077.58
798.52	1072.67
798.84	1058.62
799.17	1067.05
799.49	1065.88
799.81	1075.01
800.14	1075.24
800.46	1088.12
800.78	1086.24
801.10	1096.31
801.43	1098.65
801.75	1089.75
802.07	1079.46
802.40	1079.92
802.72	1071.97
803.04	1061.43
803.36	1067.05
803.69	1080.63
804.01	1075.24
804.33	1078.52
804.65	1085.07
804.97	1092.09
805.30	1078.99
805.62	1085.07
805.94	1079.69
806.26	1082.26
806.58	1084.37
806.91	1084.60
807.23	1090.46
807.55	1097.48
807.87	1103.33
808.19	1091.86
808.52	1101.46
808.84	1093.03
809.16	1095.37
809.48	1092.33
809.80	1100.29
810.12	1102.86
810.44	1102.16
810.77	1103.09
811.09	1103.80
811.41	1107.78
811.73	1098.18
812.05	1103.56
812.37	1103.56
812.69	1098.88
813.01	1081.56
813.33	1075.71
813.66	1073.84
813.98	1070.09
814.30	1070.33
814.62	1069.39
814.94	1079.92
815.26	1071.97
815.58	1077.11
815.90	1067.05
816.22	1082.26
816.54	1076.88
816.86	1078.52
817.18	1067.05
817.50	1072.20
817.82	1073.84
818.14	1072.20
818.46	1075.71
818.78	1075.94
819.10	1072.67
819.42	1063.31
819.74	1067.52
820.06	1062.14
820.38	1063.07
820.70	1073.14
821.02	1068.69
821.34	1066.82
821.66	1069.39
821.98	1074.77
822.30	1067.99
822.62	1071.26
822.94	1074.31
823.26	1074.31
823.58	1070.56
823.90	1075.94
824.22	1071.73
824.54	1073.14
824.86	1075.01
825.18	1077.82
825.50	1069.62
825.81	1075.01
826.13	1067.52
826.45	1060.96
826.77	1065.65
827.09	1075.71
827.41	1073.84
827.73	1079.69
828.05	1090.69
828.36	1080.63
828.68	1084.14
829.00	1086.48
829.32	1089.05
829.64	1080.39
829.96	1084.37
830.28	1077.35
830.59	1083.20
830.91	1084.14
831.23	1088.12
831.55	1089.52
831.87	1086.48
832.19	1074.31
832.50	1061.67
832.82	1058.62
833.14	1056.75
833.46	1047.62
833.78	1049.73
834.09	1053.01
834.41	1056.75
834.73	1057.22
835.05	1069.16
835.36	1076.41
835.68	1079.69
836.00	1077.35
836.32	1080.86
836.63	1075.24
836.95	1063.31
837.27	1064.48
837.59	1065.65
837.90	1054.18
838.22	1052.54
838.54	1060.73
838.85	1067.05
839.17	1071.73
839.49	1089.99
839.80	1095.60
840.12	1097.24
840.44	1087.88
840.76	1084.60
841.07	1079.22
841.39	1077.82
841.71	1072.20
842.02	1077.82
842.34	1073.37
842.65	1066.35
842.97	1071.73
843.29	1074.54
843.60	1071.03
843.92	1081.33
844.24	1088.82
844.55	1090.46
844.87	1093.73
845.18	1102.39
845.50	1092.33
845.82	1086.71
846.13	1074.54
846.45	1082.03
846.76	1075.48
847.08	1086.71
847.40	1088.35
847.71	1099.35
848.03	1092.33
848.34	1095.14
848.66	1086.94
848.97	1093.73
849.29	1091.39
849.60	1093.73
849.92	1098.88
850.24	1105.90
850.55	1101.69
850.87	1096.78
851.18	1082.03
851.50	1071.03
851.81	1060.73
852.13	1054.41
852.44	1052.30
852.76	1063.31
853.07	1059.56
853.39	1061.90
853.70	1070.33
854.01	1081.09
854.33	1093.97
854.64	1098.88
854.96	1101.92
855.27	1105.20
855.59	1100.52
855.90	1091.16
856.22	1088.12
856.53	1082.26
856.84	1073.60
857.16	1081.80
857.47	1080.39
857.79	1077.35
858.10	1082.97
858.41	1080.16
858.73	1068.69
859.04	1064.48
859.36	1071.97
859.67	1078.52
859.98	1086.01
860.30	1087.18
860.61	1090.69
860.92	1091.86
861.24	1081.56
861.55	1071.50
861.87	1077.11
862.18	1071.50
862.49	1075.24
862.81	1076.65
863.12	1083.43
863.43	1079.22
863.74	1092.33
864.06	1086.94
864.37	1094.20
864.68	1100.29
865.00	1108.95
865.31	1097.24
865.62	1100.05
865.94	1091.16
866.25	1084.84
866.56	1080.86
866.87	1077.35
867.19	1078.99
867.50	1086.48
867.81	1085.07
868.12	1073.14
868.44	1078.52
868.75	1072.90
869.06	1068.45
869.37	1064.94
869.68	1070.33
870.00	1066.11
870.31	1064.94
870.62	1063.54
870.93	1066.35
871.24	1063.54
871.56	1065.41
871.87	1074.77
872.18	1085.31
872.49	1091.39
872.80	1101.92
873.12	1103.56
873.43	1095.14
873.74	1084.84
874.05	1079.22
874.36	1059.09
874.67	1056.99
874.98	1070.33
875.29	1069.39
875.61	1068.22
875.92	1083.90
876.23	1086.71
876.54	1081.33
876.85	1080.39
877.16	1088.35
877.47	1087.65
877.78	1086.01
878.09	1081.09
878.40	1086.48
878.72	1080.86
879.03	1080.16
879.34	1083.43
879.65	1081.80
879.96	1080.16
880.27	1086.01
880.58	1081.80
880.89	1077.82
881.20	1079.92
881.51	1078.05
881.82	1078.99
882.13	1081.09
882.44	1092.80
882.75	1094.90
883.06	1099.58
883.37	1097.01
883.68	1106.14
883.99	1097.48
884.30	1095.60
884.61	1095.84
884.92	1089.99
885.23	1091.63
885.54	1082.97
885.85	1077.82
886.16	1080.63
886.47	1077.35
886.78	1062.60
887.08	1072.67
887.39	1074.07
887.70	1062.60
888.01	1065.65
888.32	1072.67
888.63	1077.82
888.94	1081.80
889.25	1088.35
889.56	1091.63
889.87	1091.63
890.17	1085.77
890.48	1076.41
890.79	1077.58
891.10	1079.92
891.41	1075.94
891.72	1064.24
892.03	1067.99
892.34	1066.35
892.64	1065.18
892.95	1073.60
893.26	1078.05
893.57	1079.69
893.88	1074.54
894.18	1070.80
894.49	1064.94
894.80	1071.26
895.11	1069.62
895.42	1070.80
895.72	1075.48
896.03	1078.28
896.34	1084.14
896.65	1086.48
896.96	1092.09
897.26	1085.31
897.57	1096.78
897.88	1091.16
898.19	1089.29
898.49	1088.12
898.80	1092.33
899.11	1080.63
899.41	1078.28
899.72	1086.01
900.03	1092.33
900.34	1097.48
900.64	1097.48
900.95	1099.35
901.26	1093.26
901.56	1086.71
901.87	1075.48
902.18	1072.43
902.48	1079.22
902.79	1078.99
903.10	1075.71
903.40	1084.14
903.71	1084.84
904.02	1082.26
904.32	1075.94
904.63	1076.88
904.94	1068.69
905.24	1069.39
905.55	1065.18
905.85	1074.31
906.16	1076.88
906.47	1078.52
906.77	1082.73
907.08	1090.22
907.38	1094.43
907.69	1098.65
908.00	1112.22
908.30	1105.20
908.61	1096.78
908.91	1083.20
909.22	1084.14
909.52	1082.26
909.83	1089.75
910.14	1091.16
910.44	1093.73
910.75	1086.71
911.05	1084.14
911.36	1083.20
911.66	1090.69
911.97	1100.52
912.27	1112.22
912.58	1110.82
912.88	1102.16
913.19	1091.16
913.49	1078.99
913.80	1057.92
914.10	1053.01
914.41	1064.94
914.71	1066.11
915.01	1061.43
915.32	1078.75
915.62	1082.50
915.93	1072.67
916.23	1084.60
916.54	1093.26
916.84	1087.18
917.15	1080.16
917.45	1075.71
917.75	1060.96
918.06	1069.62
918.36	1069.62
918.67	1070.33
918.97	1073.14
919.27	1085.07
919.58	1066.35
919.88	1062.37
920.18	1068.69
920.49	1081.33
920.79	1071.26
921.10	1086.94
921.40	1092.09
921.70	1092.56
922.01	1093.03
922.31	1099.12
922.61	1087.88
922.92	1089.99
923.22	1090.22
923.52	1085.77
923.82	1087.65
924.13	1099.58
924.43	1090.22
924.73	1076.41
925.04	1076.18
925.34	1066.82
925.64	1062.84
925.94	1073.14
926.25	1080.16
926.55	1072.43
926.85	1083.43
927.15	1076.18
927.46	1076.41
927.76	1089.99
928.06	1096.31
928.36	1088.82
928.67	1100.99
928.97	1091.63
929.27	1082.50
929.57	1076.65
929.87	1070.56
930.18	1068.69
930.48	1071.73
930.78	1076.65
931.08	1075.48
931.38	1078.75
931.69	1074.77
931.99	1082.50
932.29	1075.71
932.59	1083.20
932.89	1087.65
933.19	1087.41
933.49	1080.39
933.80	1085.07
934.10	1086.48
934.40	1095.14
934.70	1104.73
935.00	1106.37
935.30	1099.58
935.60	1094.90
935.90	1091.16
936.20	1078.28
936.50	1079.46
936.81	1081.33
937.11	1077.35
937.41	1074.54
937.71	1076.18
938.01	1079.69
938.31	1082.97
938.61	1078.99
938.91	1067.75
939.21	1067.05
939.51	1056.28
939.81	1049.50
940.11	1049.96
940.41	1053.24
940.71	1056.99
941.01	1064.71
941.31	1070.09
941.61	1076.65
941.91	1084.37
942.21	1081.80
942.51	1083.43
942.81	1088.35
943.11	1090.22
943.41	1087.18
943.71	1086.01
944.01	1077.58
944.31	1075.24
944.61	1076.65
944.90	1068.45
945.20	1061.20
945.50	1071.50
945.80	1070.33
946.10	1066.35
946.40	1080.16
946.70	1090.46
947.00	1087.88
947.30	1074.07
947.60	1065.88
947.89	1070.80
948.19	1073.14
948.49	1069.62
948.79	1081.33
949.09	1091.39
949.39	1086.94
949.69	1086.24
949.98	1089.99
950.28	1087.41
950.58	1091.16
950.88	1085.77
951.18	1079.22
951.48	1071.03
951.77	1077.11
952.07	1081.80
952.37	1082.03
952.67	1088.58
952.97	1093.97
953.26	1093.03
953.56	1092.56
953.86	1095.60
954.16	1094.43
954.45	1094.90
954.75	1095.84
955.05	1082.26
955.35	1077.35
955.64	1083.90
955.94	1083.20
956.24	1088.82
956.54	1090.46
956.83	1086.71
957.13	1083.90
957.43	1077.11
957.72	1071.03
958.02	1083.20
958.32	1088.58
958.61	1081.09
958.91	1081.33
959.21	1071.73
959.50	1063.77
959.80	1059.33
960.10	1062.60
960.39	1067.75
960.69	1076.41
960.99	1075.94
961.28	1084.37
961.58	1082.73
961.87	1077.58
962.17	1074.07
962.47	1075.01
962.76	1072.20
963.06	1078.05
963.36	1087.88
963.65	1095.14
963.95	1098.65
964.24	1089.52
964.54	1090.69
964.83	1083.43
965.13	1067.05
965.42	1057.69
965.72	1063.54
966.02	1066.82
966.31	1077.58
966.61	1091.39
966.90	1101.46
967.20	1099.12
967.49	1096.07
967.79	1086.01
968.08	1087.65
968.38	1087.41
968.67	1093.26
968.97	1085.54
969.26	1089.75
969.56	1080.86
969.85	1080.16
970.15	1082.97
970.44	1086.71
970.74	1092.56
971.03	1097.01
971.32	1087.65
971.62	1090.46
971.91	1086.24
972.21	1077.58
972.50	1085.54
972.80	1089.99
973.09	1083.67
973.38	1082.03
973.68	1089.05
973.97	1075.01
974.27	1082.73
974.56	1079.22
974.85	1076.18
975.15	1068.92
975.44	1072.43
975.73	1076.41
976.03	1086.48
976.32	1093.50
976.61	1092.80
976.91	1099.35
977.20	1090.92
977.49	1080.63
977.79	1084.60
978.08	1082.26
978.37	1075.94
978.67	1066.11
978.96	1067.28
979.25	1066.82
979.55	1071.50
979.84	1071.26
980.13	1080.39
980.42	1078.99
980.72	1075.24
981.01	1077.35
981.30	1078.52
981.59	1080.39
981.89	1089.52
982.18	1088.12
982.47	1088.58
982.76	1094.90
983.06	1082.03
983.35	1077.82
983.64	1079.92
983.93	1075.94
984.22	1073.14
984.52	1087.41
984.81	1081.56
985.10	1077.58
985.39	1077.82
985.68	1080.63
985.97	1072.67
986.27	1076.65
986.56	1089.52
986.85	1096.54
987.14	1096.54
987.43	1095.37
987.72	1092.33
988.01	1086.01
988.31	1074.07
988.60	1064.24
988.89	1071.50
989.18	1085.77
989.47	1087.41
989.76	1091.86
990.05	1104.73
990.34	1098.65
990.63	1092.09
990.92	1093.03
991.21	1098.65
991.51	1082.03
991.80	1080.16
992.09	1079.69
992.38	1081.80
992.67	1078.75
992.96	1089.75
993.25	1089.75
993.54	1079.22
993.83	1073.84
994.12	1063.31
994.41	1063.54
994.70	1056.75
994.99	1065.41
995.28	1058.62
995.57	1062.84
995.86	1055.82
996.15	1064.48
996.44	1064.01
996.73	1071.97
997.02	1082.26
997.31	1081.56
997.59	1083.20
997.88	1082.73
998.17	1078.99
998.46	1072.43
998.75	1072.90
999.04	1086.01
999.33	1092.80
999.62	1097.01
999.91	1097.24
1000.20	1102.86
1000.49	1086.71
1000.77	1082.03
1001.06	1075.48
1001.35	1075.48
1001.64	1074.31
1001.93	1076.88
1002.22	1070.56
1002.51	1075.24
1002.79	1076.88
1003.08	1080.39
1003.37	1073.84
1003.66	1072.20
1003.95	1066.82
1004.23	1071.97
1004.52	1073.84
1004.81	1079.46
1005.10	1086.48
1005.39	1088.12
1005.67	1078.99
1005.96	1069.39
1006.25	1072.67
1006.54	1067.99
1006.83	1064.94
1007.11	1064.48
1007.40	1058.62
1007.69	1066.11
1007.97	1069.16
1008.26	1073.37
1008.55	1074.77
1008.84	1077.82
1009.12	1072.67
1009.41	1071.97
1009.70	1073.84
1009.98	1082.73
1010.27	1085.77
1010.56	1080.39
1010.85	1081.56
1011.13	1091.39
1011.42	1083.90
1011.71	1088.82
1011.99	1091.63
1012.28	1085.54
1012.56	1075.48
1012.85	1081.09
1013.14	1080.63
1013.42	1074.07
1013.71	1078.99
1014.00	1082.03
1014.28	1071.97
1014.57	1069.16
1014.85	1072.90
1015.14	1073.84
1015.43	1080.86
1015.71	1095.60
1016.00	1090.22
1016.28	1092.09
1016.57	1092.33
1016.85	1076.41
1017.14	1073.84
1017.43	1083.90
1017.71	1082.97
1018.00	1080.86
1018.28	1091.39
1018.57	1087.41
1018.85	1087.41
1019.14	1085.31
1019.42	1088.12
1019.71	1078.52
1019.99	1071.73
1020.28	1073.14
1020.56	1070.33
1020.85	1070.56
1021.13	1079.22
1021.42	1089.75
1021.70	1089.99
1021.99	1089.29
1022.27	1089.75
1022.55	1048.56
1022.84	1089.52
>>>>>End Processed Spectral Data<<<<<
