SpectraSuite Data File
++++++++++++++++++++++++++++++++++++
Date: Mon Aug 26 10:25:53 PDT 2019
User: corrico
Dark Spectrum Present: No
Reference Spectrum Present: No
Number of Sampled Component Spectra: 1
Spectrometers: USB2+H06089
Integration Time (usec): 10000 (USB2+H06089)
Spectra Averaged: 2 (USB2+H06089)
Boxcar Smoothing: 2 (USB2+H06089)
Correct for Electrical Dark: No (USB2+H06089)
Strobe/Lamp Enabled: No (USB2+H06089)
Correct for Detector Non-linearity: No (USB2+H06089)
Correct for Stray Light: No (USB2+H06089)
Number of Pixels in Processed Spectrum: 2048
>>>>>Begin Processed Spectral Data<<<<<
339.70	1046.22
340.07	1046.22
340.45	1000.81
340.82	977.64
341.19	951.43
341.57	922.64
341.94	920.77
342.31	910.23
342.69	911.87
343.06	902.51
343.43	901.57
343.81	897.13
344.18	902.98
344.55	902.28
344.93	912.57
345.30	920.30
345.67	922.41
346.04	931.07
346.42	936.21
346.79	947.45
347.16	958.68
347.54	973.43
347.91	986.30
348.28	989.81
348.65	996.37
349.03	1000.81
349.40	1005.96
349.77	1013.45
350.14	1027.50
350.52	1028.43
350.89	1032.64
351.26	1042.01
351.63	1046.92
352.01	1046.22
352.38	1054.88
352.75	1066.82
353.12	1082.26
353.50	1091.39
353.87	1094.90
354.24	1106.14
354.61	1104.26
354.98	1088.58
355.36	1078.75
355.73	1084.84
356.10	1075.94
356.47	1066.58
356.84	1071.50
357.22	1079.69
357.59	1082.03
357.96	1086.01
358.33	1097.95
358.70	1088.12
359.08	1078.05
359.45	1072.20
359.82	1069.86
360.19	1068.69
360.56	1075.94
360.94	1078.28
361.31	1086.94
361.68	1083.90
362.05	1080.86
362.42	1079.22
362.79	1075.94
363.16	1070.80
363.54	1073.14
363.91	1058.39
364.28	1057.45
364.65	1057.22
365.02	1052.30
365.39	1052.54
365.76	1064.71
366.14	1064.94
366.51	1066.82
366.88	1064.71
367.25	1066.58
367.62	1070.33
367.99	1059.79
368.36	1067.05
368.73	1066.11
369.10	1066.35
369.48	1067.28
369.85	1078.99
370.22	1069.86
370.59	1073.84
370.96	1065.18
371.33	1062.60
371.70	1062.37
372.07	1077.35
372.44	1070.33
372.81	1068.45
373.18	1064.94
373.55	1059.56
373.93	1054.18
374.30	1058.39
374.67	1072.90
375.04	1074.54
375.41	1076.41
375.78	1070.56
376.15	1072.90
376.52	1061.90
376.89	1060.73
377.26	1057.69
377.63	1061.20
378.00	1061.43
378.37	1065.41
378.74	1072.90
379.11	1078.99
379.48	1081.56
379.85	1089.29
380.22	1099.12
380.59	1091.86
380.96	1095.84
381.33	1094.67
381.70	1074.07
382.07	1061.20
382.44	1053.94
382.81	1059.09
383.18	1059.79
383.55	1074.31
383.92	1082.50
384.29	1093.50
384.66	1085.31
385.03	1077.58
385.40	1075.01
385.77	1070.80
386.14	1071.97
386.51	1068.92
386.88	1063.07
387.25	1077.82
387.62	1071.26
387.99	1060.96
388.36	1061.90
388.73	1062.14
389.10	1046.92
389.46	1052.77
389.83	1069.62
390.20	1064.01
390.57	1067.52
390.94	1068.45
391.31	1064.48
391.68	1067.75
392.05	1083.90
392.42	1095.14
392.79	1098.41
393.16	1097.01
393.53	1089.05
393.89	1081.09
394.26	1075.24
394.63	1078.05
395.00	1085.07
395.37	1078.52
395.74	1072.43
396.11	1079.92
396.48	1072.90
396.84	1078.05
397.21	1078.05
397.58	1081.56
397.95	1074.77
398.32	1076.18
398.69	1074.54
399.06	1076.88
399.42	1083.67
399.79	1080.86
400.16	1085.77
400.53	1082.73
400.90	1086.48
401.27	1084.14
401.64	1091.16
402.00	1085.54
402.37	1084.84
402.74	1089.75
403.11	1086.24
403.48	1082.26
403.84	1085.54
404.21	1085.77
404.58	1083.43
404.95	1087.18
405.32	1083.20
405.68	1080.16
406.05	1077.82
406.42	1071.73
406.79	1065.41
407.16	1067.05
407.52	1066.58
407.89	1061.90
408.26	1066.11
408.63	1070.33
408.99	1075.71
409.36	1076.18
409.73	1076.88
410.10	1072.67
410.47	1072.67
410.83	1074.77
411.20	1073.60
411.57	1077.58
411.94	1074.31
412.30	1083.20
412.67	1082.73
413.04	1082.73
413.40	1088.35
413.77	1091.86
414.14	1085.31
414.51	1082.26
414.87	1085.77
415.24	1086.01
415.61	1074.07
415.97	1072.67
416.34	1066.35
416.71	1064.01
417.08	1060.03
417.44	1071.50
417.81	1074.77
418.18	1081.80
418.54	1082.50
418.91	1085.31
419.28	1086.94
419.64	1082.73
420.01	1084.37
420.38	1094.43
420.74	1096.31
421.11	1094.67
421.48	1090.92
421.84	1092.80
422.21	1084.37
422.58	1075.71
422.94	1080.63
423.31	1077.58
423.68	1078.99
424.04	1069.86
424.41	1079.69
424.77	1083.67
425.14	1089.52
425.51	1083.43
425.87	1092.80
426.24	1081.33
426.61	1072.90
426.97	1070.09
427.34	1067.99
427.70	1066.11
428.07	1074.31
428.44	1074.54
428.80	1079.46
429.17	1079.69
429.53	1084.14
429.90	1088.12
430.27	1093.03
430.63	1093.50
431.00	1100.75
431.36	1087.88
431.73	1078.75
432.09	1074.31
432.46	1071.73
432.83	1062.14
433.19	1074.31
433.56	1079.46
433.92	1076.65
434.29	1079.92
434.65	1082.50
435.02	1082.50
435.38	1074.07
435.75	1072.67
436.11	1076.88
436.48	1079.69
436.84	1087.41
437.21	1088.35
437.57	1091.63
437.94	1084.37
438.30	1077.11
438.67	1066.58
439.03	1067.05
439.40	1071.50
439.76	1080.39
440.13	1092.56
440.49	1106.84
440.86	1111.05
441.22	1104.97
441.59	1104.73
441.95	1096.54
442.32	1083.20
442.68	1080.63
443.05	1077.58
443.41	1064.48
443.78	1060.26
444.14	1062.84
444.51	1067.52
444.87	1079.46
445.24	1081.80
445.60	1092.09
445.96	1095.60
446.33	1094.67
446.69	1093.50
447.06	1083.43
447.42	1076.18
447.79	1057.92
448.15	1063.54
448.51	1065.18
448.88	1074.31
449.24	1078.28
449.61	1087.88
449.97	1081.09
450.33	1072.67
450.70	1074.54
451.06	1078.99
451.43	1071.97
451.79	1072.43
452.15	1073.84
452.52	1073.37
452.88	1063.31
453.24	1068.92
453.61	1069.39
453.97	1064.48
454.34	1067.05
454.70	1081.80
455.06	1077.82
455.43	1078.05
455.79	1090.92
456.15	1089.99
456.52	1080.16
456.88	1087.18
457.24	1088.58
457.61	1082.73
457.97	1083.90
458.33	1071.26
458.70	1065.88
459.06	1057.69
459.42	1058.86
459.79	1056.99
460.15	1066.82
460.51	1075.94
460.88	1079.22
461.24	1081.09
461.60	1080.63
461.96	1085.07
462.33	1072.67
462.69	1068.22
463.05	1063.31
463.42	1066.82
463.78	1062.14
464.14	1071.26
464.50	1068.92
464.87	1071.03
465.23	1071.03
465.59	1072.43
465.95	1072.67
466.32	1078.99
466.68	1069.16
467.04	1072.90
467.40	1080.39
467.77	1082.50
468.13	1083.90
468.49	1099.12
468.85	1088.35
469.22	1087.41
469.58	1082.50
469.94	1082.03
470.30	1076.41
470.66	1074.77
471.03	1079.69
471.39	1081.09
471.75	1087.41
472.11	1087.65
472.47	1088.82
472.84	1077.58
473.20	1073.60
473.56	1077.11
473.92	1068.69
474.28	1072.67
474.65	1068.92
475.01	1065.18
475.37	1060.50
475.73	1065.65
476.09	1065.88
476.45	1067.75
476.81	1077.11
477.18	1067.75
477.54	1072.43
477.90	1074.07
478.26	1081.80
478.62	1079.69
478.98	1093.26
479.34	1100.29
479.71	1094.90
480.07	1087.41
480.43	1092.09
480.79	1092.56
481.15	1083.67
481.51	1086.01
481.87	1081.09
482.23	1070.56
482.59	1059.33
482.96	1056.28
483.32	1062.14
483.68	1065.65
484.04	1071.03
484.40	1067.75
484.76	1068.92
485.12	1066.35
485.48	1075.48
485.84	1078.28
486.20	1086.48
486.56	1088.82
486.92	1096.07
487.28	1090.69
487.64	1097.95
488.00	1095.37
488.37	1095.37
488.73	1086.48
489.09	1085.54
489.45	1071.26
489.81	1070.80
490.17	1070.80
490.53	1077.11
490.89	1075.48
491.25	1084.84
491.61	1087.18
491.97	1091.16
492.33	1092.56
492.69	1096.54
493.05	1091.39
493.41	1084.37
493.77	1071.50
494.13	1063.31
494.49	1063.54
494.85	1066.35
495.21	1069.86
495.57	1078.28
495.93	1073.84
496.29	1074.54
496.64	1075.01
497.00	1083.20
497.36	1080.16
497.72	1092.09
498.08	1098.41
498.44	1100.05
498.80	1091.16
499.16	1088.12
499.52	1087.88
499.88	1073.84
500.24	1077.82
500.60	1084.37
500.96	1093.73
501.32	1082.73
501.68	1088.12
502.03	1082.26
502.39	1081.80
502.75	1078.75
503.11	1087.18
503.47	1093.73
503.83	1091.86
504.19	1086.24
504.55	1088.35
504.91	1096.54
505.26	1096.54
505.62	1100.52
505.98	1107.07
506.34	1104.97
506.70	1092.56
507.06	1085.54
507.42	1075.24
507.78	1077.82
508.13	1082.97
508.49	1086.01
508.85	1085.77
509.21	1095.37
509.57	1086.48
509.93	1075.71
510.28	1081.56
510.64	1092.09
511.00	1090.92
511.36	1100.99
511.72	1120.88
512.07	1112.69
512.43	1106.84
512.79	1104.97
513.15	1100.05
513.51	1078.52
513.86	1084.84
514.22	1096.07
514.58	1106.37
514.94	1109.18
515.30	1108.95
515.65	1101.92
516.01	1084.84
516.37	1073.14
516.73	1064.01
517.08	1076.88
517.44	1076.41
517.80	1080.16
518.16	1080.39
518.51	1084.60
518.87	1077.82
519.23	1086.48
519.59	1084.37
519.94	1090.46
520.30	1091.39
520.66	1088.82
521.01	1088.58
521.37	1094.90
521.73	1089.29
522.09	1079.46
522.44	1089.99
522.80	1081.33
523.16	1081.33
523.51	1074.77
523.87	1086.01
524.23	1082.73
524.58	1086.71
524.94	1077.82
525.30	1085.77
525.65	1075.01
526.01	1072.67
526.37	1070.09
526.72	1075.71
527.08	1085.77
527.44	1098.18
527.79	1096.54
528.15	1094.67
528.51	1096.31
528.86	1084.60
529.22	1090.92
529.58	1087.65
529.93	1088.35
530.29	1086.71
530.65	1092.09
531.00	1090.92
531.36	1088.82
531.71	1095.84
532.07	1096.54
532.43	1090.46
532.78	1088.82
533.14	1097.01
533.49	1101.22
533.85	1108.71
534.21	1111.29
534.56	1112.46
534.92	1111.29
535.27	1102.39
535.63	1093.26
535.98	1100.05
536.34	1091.16
536.69	1086.71
537.05	1090.22
537.41	1087.18
537.76	1078.28
538.12	1073.37
538.47	1074.07
538.83	1074.54
539.18	1074.31
539.54	1079.46
539.89	1086.48
540.25	1086.71
540.60	1089.99
540.96	1089.75
541.31	1091.39
541.67	1093.73
542.02	1096.07
542.38	1081.56
542.73	1079.92
543.09	1074.77
543.44	1068.92
543.80	1070.56
544.15	1075.71
544.51	1077.35
544.86	1081.09
545.22	1091.86
545.57	1087.65
545.93	1091.86
546.28	1100.05
546.64	1097.01
546.99	1089.99
547.35	1093.73
547.70	1086.71
548.05	1084.37
548.41	1083.67
548.76	1084.14
549.12	1083.67
549.47	1085.07
549.83	1075.01
550.18	1078.05
550.53	1085.07
550.89	1078.05
551.24	1084.84
551.60	1089.29
551.95	1096.54
552.30	1093.73
552.66	1099.35
553.01	1091.16
553.37	1089.99
553.72	1082.97
554.07	1080.63
554.43	1083.67
554.78	1085.54
555.13	1091.16
555.49	1084.14
555.84	1082.50
556.19	1070.80
556.55	1075.71
556.90	1074.77
557.26	1082.03
557.61	1078.28
557.96	1083.67
558.32	1076.41
558.67	1069.39
559.02	1074.07
559.37	1072.90
559.73	1082.73
560.08	1094.90
560.43	1101.46
560.79	1090.69
561.14	1093.26
561.49	1089.99
561.85	1086.01
562.20	1097.24
562.55	1094.43
562.90	1093.73
563.26	1099.58
563.61	1103.56
563.96	1094.67
564.32	1100.75
564.67	1101.92
565.02	1091.16
565.37	1086.24
565.73	1077.11
566.08	1078.52
566.43	1064.01
566.78	1064.01
567.14	1056.52
567.49	1061.90
567.84	1060.50
568.19	1069.39
568.54	1067.99
568.90	1077.82
569.25	1075.71
569.60	1075.94
569.95	1076.65
570.31	1085.77
570.66	1077.11
571.01	1083.67
571.36	1078.52
571.71	1077.35
572.06	1067.28
572.42	1077.58
572.77	1070.80
573.12	1078.28
573.47	1082.73
573.82	1087.18
574.18	1078.75
574.53	1081.09
574.88	1071.73
575.23	1068.22
575.58	1064.48
575.93	1056.52
576.28	1049.73
576.64	1055.58
576.99	1056.99
577.34	1061.90
577.69	1076.88
578.04	1086.71
578.39	1084.14
578.74	1088.82
579.09	1086.48
579.44	1094.43
579.80	1094.43
580.15	1102.16
580.50	1103.56
580.85	1109.18
581.20	1111.05
581.55	1111.75
581.90	1105.20
582.25	1095.84
582.60	1088.35
582.95	1072.20
583.30	1075.48
583.65	1083.20
584.00	1088.82
584.35	1085.54
584.71	1090.46
585.06	1082.73
585.41	1070.80
585.76	1067.99
586.11	1073.84
586.46	1071.73
586.81	1075.71
587.16	1087.18
587.51	1091.16
587.86	1083.43
588.21	1080.63
588.56	1063.31
588.91	1055.11
589.26	1049.73
589.61	1067.75
589.96	1063.07
590.31	1078.28
590.66	1077.82
591.01	1084.37
591.36	1077.58
591.71	1083.43
592.06	1083.67
592.41	1089.52
592.76	1093.73
593.10	1082.03
593.45	1079.22
593.80	1082.26
594.15	1082.73
594.50	1081.80
594.85	1085.77
595.20	1085.31
595.55	1084.14
595.90	1089.05
596.25	1084.37
596.60	1083.43
596.95	1078.52
597.30	1080.63
597.64	1118.07
597.99	1116.44
598.34	1125.10
598.69	1137.50
599.04	1132.59
599.39	1093.50
599.74	1091.39
600.09	1094.67
600.44	1081.56
600.78	1079.22
601.13	1075.94
601.48	1087.65
601.83	1080.39
602.18	1092.80
602.53	1089.75
602.88	1091.39
603.22	1082.97
603.57	1085.77
603.92	1075.71
604.27	1078.75
604.62	1074.07
604.97	1075.94
605.31	1074.07
605.66	1080.16
606.01	1089.29
606.36	1087.65
606.71	1086.71
607.05	1083.90
607.40	1081.80
607.75	1071.97
608.10	1076.18
608.44	1084.84
608.79	1088.82
609.14	1090.22
609.49	1098.65
609.84	1096.78
610.18	1092.33
610.53	1091.63
610.88	1093.03
611.23	1084.60
611.57	1089.52
611.92	1095.14
612.27	1101.22
612.62	1106.14
612.96	1110.12
613.31	1105.90
613.66	1094.67
614.00	1083.67
614.35	1075.71
614.70	1075.71
615.05	1078.99
615.39	1077.82
615.74	1083.90
616.09	1089.75
616.43	1083.67
616.78	1071.03
617.13	1074.31
617.47	1073.60
617.82	1075.24
618.17	1078.52
618.51	1086.94
618.86	1083.43
619.21	1083.20
619.55	1086.94
619.90	1080.86
620.25	1077.58
620.59	1078.52
620.94	1076.41
621.29	1067.99
621.63	1078.99
621.98	1075.01
622.32	1069.86
622.67	1061.67
623.02	1061.43
623.36	1049.50
623.71	1052.54
624.05	1064.24
624.40	1067.99
624.75	1074.77
625.09	1078.28
625.44	1077.11
625.78	1064.01
626.13	1065.18
626.48	1053.01
626.82	1063.77
627.17	1067.75
627.51	1075.94
627.86	1086.48
628.20	1085.54
628.55	1082.97
628.89	1084.84
629.24	1086.01
629.58	1083.90
629.93	1094.20
630.28	1085.77
630.62	1075.24
630.97	1071.26
631.31	1062.84
631.66	1059.79
632.00	1062.14
632.35	1073.60
632.69	1083.67
633.04	1089.29
633.38	1085.07
633.73	1091.16
634.07	1084.84
634.42	1067.75
634.76	1062.60
635.11	1067.05
635.45	1063.31
635.79	1063.54
636.14	1066.35
636.48	1065.88
636.83	1071.97
637.17	1075.48
637.52	1088.82
637.86	1089.99
638.21	1092.56
638.55	1083.67
638.89	1079.69
639.24	1069.86
639.58	1076.41
639.93	1080.16
640.27	1078.52
640.61	1078.52
640.96	1077.35
641.30	1080.63
641.65	1081.56
641.99	1084.37
642.33	1086.01
642.68	1083.90
643.02	1077.58
643.37	1065.18
643.71	1071.26
644.05	1067.28
644.40	1067.99
644.74	1077.35
645.08	1082.73
645.43	1084.14
645.77	1081.80
646.11	1082.03
646.46	1074.31
646.80	1075.48
647.14	1067.28
647.49	1072.20
647.83	1078.05
648.17	1070.80
648.52	1076.41
648.86	1070.56
649.20	1076.18
649.55	1068.69
649.89	1073.37
650.23	1068.92
650.57	1077.58
650.92	1069.86
651.26	1082.50
651.60	1086.48
651.95	1095.60
652.29	1100.29
652.63	1107.54
652.97	1102.16
653.32	1098.41
653.66	1086.94
654.00	1087.18
654.34	1081.56
654.69	1082.97
655.03	1084.60
655.37	1086.24
655.71	1086.71
656.05	1086.94
656.40	1085.77
656.74	1087.18
657.08	1094.20
657.42	1086.71
657.76	1079.69
658.11	1065.65
658.45	1071.50
658.79	1066.35
659.13	1061.43
659.47	1064.94
659.82	1079.92
660.16	1070.80
660.50	1071.26
660.84	1076.41
661.18	1081.09
661.52	1077.82
661.87	1080.16
662.21	1072.90
662.55	1071.50
662.89	1070.56
663.23	1071.50
663.57	1073.84
663.91	1075.24
664.25	1071.03
664.60	1071.97
664.94	1066.58
665.28	1062.37
665.62	1069.86
665.96	1066.58
666.30	1074.54
666.64	1078.75
666.98	1071.26
667.32	1055.82
667.66	1061.67
668.01	1055.58
668.35	1056.99
668.69	1059.09
669.03	1069.16
669.37	1071.50
669.71	1061.90
670.05	1066.11
670.39	1076.41
670.73	1080.86
671.07	1082.97
671.41	1089.29
671.75	1083.43
672.09	1080.16
672.43	1073.60
672.77	1068.92
673.11	1070.56
673.45	1066.35
673.79	1063.77
674.13	1066.82
674.47	1064.24
674.81	1056.99
675.15	1053.24
675.49	1069.16
675.83	1066.82
676.17	1074.07
676.51	1086.01
676.85	1090.46
677.19	1075.01
677.53	1083.90
677.87	1082.97
678.21	1079.69
678.55	1082.50
678.89	1083.20
679.23	1078.52
679.57	1076.65
679.90	1073.60
680.24	1074.77
680.58	1082.73
680.92	1078.99
681.26	1086.71
681.60	1090.22
681.94	1098.88
682.28	1093.03
682.62	1095.60
682.96	1091.86
683.29	1093.50
683.63	1083.43
683.97	1084.60
684.31	1080.39
684.65	1078.52
684.99	1069.86
685.33	1067.28
685.67	1064.48
686.00	1069.16
686.34	1065.41
686.68	1064.94
687.02	1066.58
687.36	1070.33
687.70	1077.11
688.03	1072.20
688.37	1086.01
688.71	1084.37
689.05	1080.63
689.39	1071.50
689.72	1083.20
690.06	1077.58
690.40	1081.80
690.74	1088.35
691.08	1090.46
691.41	1081.33
691.75	1082.26
692.09	1071.50
692.43	1071.97
692.76	1078.05
693.10	1077.11
693.44	1079.22
693.78	1091.16
694.11	1083.20
694.45	1084.84
694.79	1097.71
695.13	1083.20
695.46	1081.09
695.80	1079.46
696.14	1060.73
696.48	1055.58
696.81	1065.41
697.15	1063.31
697.49	1068.22
697.82	1082.73
698.16	1089.52
698.50	1084.37
698.83	1086.94
699.17	1082.97
699.51	1087.88
699.84	1082.97
700.18	1088.35
700.52	1096.07
700.85	1095.60
701.19	1089.99
701.53	1086.24
701.86	1082.73
702.20	1072.67
702.54	1082.03
702.87	1081.33
703.21	1080.16
703.55	1080.86
703.88	1078.99
704.22	1072.90
704.55	1068.92
704.89	1067.75
705.23	1067.52
705.56	1073.60
705.90	1080.16
706.23	1081.56
706.57	1081.56
706.91	1085.31
707.24	1079.22
707.58	1072.43
707.91	1076.18
708.25	1077.35
708.58	1064.48
708.92	1077.82
709.26	1066.58
709.59	1063.54
709.93	1066.11
710.26	1076.65
710.60	1066.58
710.93	1072.67
711.27	1064.71
711.60	1066.58
711.94	1070.56
712.27	1071.50
712.61	1073.14
712.94	1091.63
713.28	1091.39
713.61	1092.33
713.95	1091.39
714.28	1091.39
714.62	1087.18
714.95	1081.80
715.29	1080.86
715.62	1084.14
715.96	1084.37
716.29	1071.26
716.63	1071.73
716.96	1068.22
717.29	1059.09
717.63	1069.39
717.96	1076.41
718.30	1079.92
718.63	1076.65
718.97	1079.22
719.30	1074.31
719.63	1065.65
719.97	1061.43
720.30	1068.22
720.64	1078.99
720.97	1066.11
721.30	1082.03
721.64	1082.26
721.97	1078.05
722.31	1071.26
722.64	1082.03
722.97	1072.67
723.31	1081.80
723.64	1087.88
723.97	1088.12
724.31	1089.05
724.64	1089.99
724.98	1085.54
725.31	1078.75
725.64	1078.05
725.98	1077.35
726.31	1074.31
726.64	1076.18
726.97	1079.22
727.31	1084.37
727.64	1089.29
727.97	1087.18
728.31	1086.71
728.64	1081.56
728.97	1083.90
729.31	1086.71
729.64	1099.12
729.97	1098.41
730.30	1100.52
730.64	1089.05
730.97	1088.82
731.30	1080.16
731.63	1083.20
731.97	1080.63
732.30	1081.09
732.63	1074.31
732.96	1079.92
733.30	1072.67
733.63	1078.99
733.96	1084.37
734.29	1087.18
734.63	1093.26
734.96	1105.90
735.29	1106.61
735.62	1104.97
735.95	1103.09
736.29	1088.58
736.62	1081.80
736.95	1089.99
737.28	1086.48
737.61	1081.56
737.94	1085.07
738.28	1080.16
738.61	1071.50
738.94	1075.24
739.27	1080.63
739.60	1075.24
739.93	1082.73
740.27	1077.35
740.60	1077.11
740.93	1076.41
741.26	1082.03
741.59	1080.63
741.92	1087.41
742.25	1084.60
742.58	1086.94
742.91	1081.80
743.25	1083.20
743.58	1084.60
743.91	1084.60
744.24	1079.46
744.57	1087.18
744.90	1083.43
745.23	1080.86
745.56	1084.60
745.89	1089.52
746.22	1087.41
746.55	1093.97
746.88	1103.80
747.21	1094.20
747.54	1092.33
747.87	1096.31
748.20	1079.69
748.53	1061.90
748.87	1072.20
749.20	1076.65
749.53	1079.22
749.86	1080.63
750.19	1089.29
750.52	1089.05
750.85	1079.92
751.18	1070.09
751.51	1073.60
751.84	1072.43
752.16	1069.62
752.49	1079.92
752.82	1093.26
753.15	1096.31
753.48	1093.03
753.81	1093.03
754.14	1085.31
754.47	1077.82
754.80	1088.35
755.13	1089.52
755.46	1092.33
755.79	1097.24
756.12	1108.24
756.45	1101.69
756.78	1094.20
757.11	1093.97
757.43	1099.35
757.76	1087.65
758.09	1090.46
758.42	1100.29
758.75	1096.54
759.08	1092.56
759.41	1102.63
759.74	1102.86
760.07	1095.84
760.39	1099.12
760.72	1088.82
761.05	1069.16
761.38	1060.26
761.71	1065.18
762.04	1066.82
762.36	1065.18
762.69	1081.09
763.02	1080.63
763.35	1079.69
763.68	1080.39
764.01	1085.31
764.33	1075.71
764.66	1079.46
764.99	1074.54
765.32	1074.07
765.65	1079.92
765.97	1082.50
766.30	1088.35
766.63	1096.54
766.96	1091.86
767.28	1076.88
767.61	1079.22
767.94	1081.56
768.27	1070.09
768.59	1071.50
768.92	1082.97
769.25	1085.31
769.58	1073.14
769.90	1089.75
770.23	1087.65
770.56	1096.07
770.89	1092.33
771.21	1085.54
771.54	1082.73
771.87	1079.69
772.19	1072.67
772.52	1079.46
772.85	1080.63
773.17	1068.92
773.50	1073.14
773.83	1071.50
774.15	1067.52
774.48	1068.69
774.81	1075.94
775.13	1070.09
775.46	1063.77
775.79	1072.67
776.11	1067.75
776.44	1057.22
776.77	1051.60
777.09	1062.84
777.42	1052.07
777.74	1062.14
778.07	1067.52
778.40	1078.28
778.72	1076.18
779.05	1071.26
779.37	1070.56
779.70	1083.67
780.03	1086.01
780.35	1082.03
780.68	1085.77
781.00	1090.92
781.33	1084.60
781.65	1083.67
781.98	1089.05
782.31	1085.77
782.63	1078.75
782.96	1077.82
783.28	1075.71
783.61	1076.88
783.93	1081.56
784.26	1081.09
784.58	1082.73
784.91	1089.52
785.23	1089.75
785.56	1093.97
785.88	1105.44
786.21	1101.22
786.53	1087.65
786.86	1082.97
787.18	1078.28
787.51	1079.92
787.83	1077.58
788.16	1091.16
788.48	1091.63
788.81	1094.67
789.13	1086.71
789.46	1090.46
789.78	1087.41
790.10	1088.58
790.43	1082.73
790.75	1085.07
791.08	1089.29
791.40	1101.92
791.73	1112.46
792.05	1114.33
792.37	1110.12
792.70	1097.24
793.02	1079.46
793.35	1062.84
793.67	1058.62
793.99	1056.52
794.32	1051.60
794.64	1059.09
794.96	1053.24
795.29	1060.50
795.61	1067.05
795.93	1093.50
796.26	1085.07
796.58	1098.18
796.91	1100.99
797.23	1093.50
797.55	1078.05
797.87	1080.39
798.20	1078.75
798.52	1078.52
798.84	1082.97
799.17	1084.14
799.49	1087.41
799.81	1082.73
800.14	1081.33
800.46	1083.67
800.78	1079.92
801.10	1080.16
801.43	1086.24
801.75	1077.35
802.07	1079.46
802.40	1081.33
802.72	1077.58
803.04	1075.24
803.36	1078.75
803.69	1070.09
804.01	1077.35
804.33	1078.75
804.65	1078.05
804.97	1082.50
805.30	1086.48
805.62	1089.99
805.94	1100.99
806.26	1101.92
806.58	1094.90
806.91	1098.88
807.23	1089.75
807.55	1072.67
807.87	1069.62
808.19	1077.82
808.52	1069.86
808.84	1072.20
809.16	1084.60
809.48	1071.26
809.80	1058.86
810.12	1059.79
810.44	1064.48
810.77	1066.35
811.09	1073.14
811.41	1079.69
811.73	1086.01
812.05	1089.05
812.37	1078.28
812.69	1078.99
813.01	1085.07
813.33	1075.48
813.66	1068.22
813.98	1076.18
814.30	1081.80
814.62	1076.41
814.94	1080.16
815.26	1080.39
815.58	1068.45
815.90	1067.28
816.22	1070.09
816.54	1071.50
816.86	1067.05
817.18	1072.43
817.50	1067.52
817.82	1057.22
818.14	1056.05
818.46	1064.24
818.78	1055.58
819.10	1066.35
819.42	1071.03
819.74	1076.41
820.06	1076.18
820.38	1090.69
820.70	1090.69
821.02	1096.54
821.34	1088.35
821.66	1073.60
821.98	1070.09
822.30	1066.35
822.62	1066.35
822.94	1070.09
823.26	1074.54
823.58	1083.67
823.90	1080.63
824.22	1071.03
824.54	1073.14
824.86	1079.92
825.18	1073.60
825.50	1082.97
825.81	1100.29
826.13	1102.16
826.45	1105.90
826.77	1106.61
827.09	1105.44
827.41	1097.48
827.73	1092.09
828.05	1087.41
828.36	1082.26
828.68	1070.09
829.00	1069.16
829.32	1067.52
829.64	1068.69
829.96	1067.28
830.28	1076.88
830.59	1076.18
830.91	1084.60
831.23	1083.20
831.55	1083.43
831.87	1075.24
832.19	1067.05
832.50	1069.16
832.82	1064.24
833.14	1068.69
833.46	1077.82
833.78	1086.24
834.09	1070.56
834.41	1079.22
834.73	1073.37
835.05	1073.60
835.36	1074.31
835.68	1079.92
836.00	1078.05
836.32	1083.20
836.63	1083.67
836.95	1075.24
837.27	1080.16
837.59	1084.37
837.90	1084.14
838.22	1085.77
838.54	1089.05
838.85	1084.60
839.17	1074.07
839.49	1078.52
839.80	1072.67
840.12	1070.56
840.44	1076.18
840.76	1072.43
841.07	1068.92
841.39	1068.45
841.71	1071.50
842.02	1074.77
842.34	1074.77
842.65	1069.62
842.97	1070.56
843.29	1079.46
843.60	1077.58
843.92	1082.97
844.24	1093.26
844.55	1088.82
844.87	1086.48
845.18	1086.94
845.50	1088.12
845.82	1074.07
846.13	1072.67
846.45	1070.80
846.76	1071.26
847.08	1067.75
847.40	1076.88
847.71	1081.56
848.03	1081.09
848.34	1076.88
848.66	1077.58
848.97	1066.35
849.29	1063.77
849.60	1072.43
849.92	1077.58
850.24	1082.97
850.55	1090.92
850.87	1099.82
851.18	1083.67
851.50	1083.43
851.81	1082.97
852.13	1081.33
852.44	1066.82
852.76	1071.73
853.07	1079.69
853.39	1067.75
853.70	1077.35
854.01	1091.16
854.33	1093.03
854.64	1078.05
854.96	1093.50
855.27	1091.39
855.59	1087.65
855.90	1083.90
856.22	1076.88
856.53	1074.54
856.84	1070.56
857.16	1068.45
857.47	1065.18
857.79	1084.14
858.10	1077.35
858.41	1070.80
858.73	1073.14
859.04	1079.46
859.36	1067.05
859.67	1069.86
859.98	1075.48
860.30	1075.48
860.61	1077.11
860.92	1078.28
861.24	1079.69
861.55	1082.03
861.87	1077.82
862.18	1072.67
862.49	1078.52
862.81	1080.16
863.12	1079.22
863.43	1082.03
863.74	1088.58
864.06	1081.33
864.37	1086.24
864.68	1092.09
865.00	1090.22
865.31	1082.73
865.62	1092.33
865.94	1082.26
866.25	1069.86
866.56	1074.77
866.87	1074.77
867.19	1065.88
867.50	1059.56
867.81	1062.14
868.12	1063.07
868.44	1067.05
868.75	1068.45
869.06	1077.58
869.37	1090.22
869.68	1085.77
870.00	1092.56
870.31	1093.26
870.62	1087.41
870.93	1085.07
871.24	1089.05
871.56	1078.99
871.87	1077.11
872.18	1081.09
872.49	1080.86
872.80	1073.84
873.12	1087.41
873.43	1083.43
873.74	1093.73
874.05	1093.73
874.36	1093.26
874.67	1075.71
874.98	1075.94
875.29	1077.35
875.61	1071.03
875.92	1075.71
876.23	1094.90
876.54	1098.65
876.85	1101.46
877.16	1101.69
877.47	1107.31
877.78	1089.99
878.09	1097.95
878.40	1083.67
878.72	1079.69
879.03	1074.77
879.34	1075.71
879.65	1064.24
879.96	1070.80
880.27	1076.65
880.58	1073.37
880.89	1078.75
881.20	1087.65
881.51	1090.22
881.82	1096.31
882.13	1104.73
882.44	1106.61
882.75	1113.16
883.06	1105.44
883.37	1100.99
883.68	1104.26
883.99	1100.05
884.30	1100.75
884.61	1103.09
884.92	1102.39
885.23	1093.03
885.54	1093.73
885.85	1075.01
886.16	1078.05
886.47	1077.11
886.78	1082.26
887.08	1087.88
887.39	1103.56
887.70	1099.12
888.01	1099.58
888.32	1093.50
888.63	1093.73
888.94	1085.77
889.25	1083.90
889.56	1078.52
889.87	1075.48
890.17	1065.41
890.48	1059.56
890.79	1066.58
891.10	1072.20
891.41	1080.39
891.72	1080.86
892.03	1081.80
892.34	1076.88
892.64	1078.52
892.95	1069.39
893.26	1079.22
893.57	1086.71
893.88	1080.63
894.18	1075.24
894.49	1071.03
894.80	1071.50
895.11	1069.16
895.42	1070.09
895.72	1063.54
896.03	1069.39
896.34	1059.09
896.65	1064.01
896.96	1062.60
897.26	1075.24
897.57	1073.84
897.88	1076.88
898.19	1073.37
898.49	1071.03
898.80	1059.56
899.11	1059.79
899.41	1071.73
899.72	1065.18
900.03	1068.22
900.34	1078.28
900.64	1088.82
900.95	1066.11
901.26	1074.77
901.56	1083.67
901.87	1075.48
902.18	1068.22
902.48	1086.01
902.79	1078.99
903.10	1079.69
903.40	1089.75
903.71	1080.39
904.02	1073.84
904.32	1089.99
904.63	1085.54
904.94	1076.18
905.24	1097.24
905.55	1090.92
905.85	1071.73
906.16	1075.71
906.47	1087.18
906.77	1077.11
907.08	1086.24
907.38	1092.56
907.69	1087.88
908.00	1083.20
908.30	1082.26
908.61	1082.03
908.91	1075.94
909.22	1069.39
909.52	1064.24
909.83	1061.90
910.14	1061.67
910.44	1061.20
910.75	1071.03
911.05	1079.46
911.36	1082.50
911.66	1078.75
911.97	1087.65
912.27	1082.03
912.58	1069.86
912.88	1064.24
913.19	1063.07
913.49	1058.62
913.80	1066.11
914.10	1070.09
914.41	1070.09
914.71	1068.22
915.01	1070.56
915.32	1068.69
915.62	1065.88
915.93	1071.26
916.23	1075.01
916.54	1072.20
916.84	1071.97
917.15	1076.18
917.45	1084.14
917.75	1089.99
918.06	1092.80
918.36	1094.43
918.67	1101.69
918.97	1098.65
919.27	1095.60
919.58	1100.29
919.88	1085.07
920.18	1075.24
920.49	1068.92
920.79	1073.14
921.10	1066.58
921.40	1083.67
921.70	1081.33
922.01	1081.56
922.31	1070.56
922.61	1057.45
922.92	1051.13
923.22	1058.86
923.52	1066.11
923.82	1078.28
924.13	1100.05
924.43	1109.41
924.73	1112.69
925.04	1103.80
925.34	1094.20
925.64	1086.71
925.94	1082.73
926.25	1076.41
926.55	1076.18
926.85	1083.90
927.15	1088.12
927.46	1085.07
927.76	1085.07
928.06	1090.69
928.36	1078.75
928.67	1076.18
928.97	1070.33
929.27	1069.62
929.57	1071.26
929.87	1079.92
930.18	1074.07
930.48	1075.01
930.78	1073.14
931.08	1078.28
931.38	1077.58
931.69	1086.71
931.99	1086.01
932.29	1099.58
932.59	1093.97
932.89	1100.99
933.19	1097.01
933.49	1104.50
933.80	1092.33
934.10	1085.07
934.40	1079.46
934.70	1074.54
935.00	1078.99
935.30	1079.92
935.60	1075.48
935.90	1063.31
936.20	1066.11
936.50	1058.62
936.81	1057.69
937.11	1069.39
937.41	1086.24
937.71	1092.80
938.01	1095.84
938.31	1100.75
938.61	1103.33
938.91	1100.29
939.21	1099.58
939.51	1089.05
939.81	1086.01
940.11	1082.73
940.41	1076.88
940.71	1070.56
941.01	1078.52
941.31	1081.56
941.61	1082.26
941.91	1085.07
942.21	1087.88
942.51	1083.90
942.81	1076.18
943.11	1078.05
943.41	1082.97
943.71	1094.20
944.01	1101.22
944.31	1102.86
944.61	1097.01
944.90	1091.86
945.20	1080.39
945.50	1070.56
945.80	1071.26
946.10	1068.45
946.40	1069.86
946.70	1062.60
947.00	1071.50
947.30	1089.52
947.60	1092.80
947.89	1090.69
948.19	1096.78
948.49	1095.60
948.79	1083.20
949.09	1086.24
949.39	1087.41
949.69	1084.60
949.98	1080.16
950.28	1077.11
950.58	1066.82
950.88	1067.99
951.18	1069.39
951.48	1073.60
951.77	1074.07
952.07	1082.97
952.37	1081.33
952.67	1086.94
952.97	1086.48
953.26	1089.29
953.56	1082.73
953.86	1082.03
954.16	1087.88
954.45	1085.54
954.75	1081.09
955.05	1077.58
955.35	1077.82
955.64	1080.63
955.94	1078.99
956.24	1078.99
956.54	1084.84
956.83	1090.92
957.13	1078.28
957.43	1075.24
957.72	1072.90
958.02	1086.24
958.32	1073.84
958.61	1077.11
958.91	1090.22
959.21	1091.39
959.50	1080.86
959.80	1079.92
960.10	1079.46
960.39	1081.09
960.69	1079.69
960.99	1077.35
961.28	1085.31
961.58	1076.18
961.87	1061.90
962.17	1063.07
962.47	1076.18
962.76	1073.14
963.06	1083.20
963.36	1096.07
963.65	1099.35
963.95	1089.99
964.24	1086.94
964.54	1086.24
964.83	1081.09
965.13	1078.52
965.42	1069.62
965.72	1075.71
966.02	1074.77
966.31	1075.94
966.61	1073.60
966.90	1089.05
967.20	1080.86
967.49	1078.75
967.79	1069.39
968.08	1072.90
968.38	1067.52
968.67	1077.11
968.97	1078.28
969.26	1087.41
969.56	1084.84
969.85	1083.67
970.15	1080.39
970.44	1069.39
970.74	1066.58
971.03	1076.88
971.32	1070.33
971.62	1072.43
971.91	1088.58
972.21	1088.58
972.50	1074.31
972.80	1085.31
973.09	1079.69
973.38	1067.28
973.68	1070.80
973.97	1078.52
974.27	1071.97
974.56	1085.31
974.85	1099.58
975.15	1099.82
975.44	1089.29
975.73	1095.84
976.03	1094.90
976.32	1084.84
976.61	1084.37
976.91	1095.84
977.20	1084.60
977.49	1078.75
977.79	1076.65
978.08	1084.14
978.37	1083.43
978.67	1092.80
978.96	1090.22
979.25	1091.39
979.55	1075.48
979.84	1070.80
980.13	1068.22
980.42	1071.03
980.72	1076.41
981.01	1088.12
981.30	1093.03
981.59	1086.24
981.89	1081.33
982.18	1069.16
982.47	1057.22
982.76	1050.90
983.06	1058.16
983.35	1053.48
983.64	1072.67
983.93	1077.35
984.22	1082.03
984.52	1075.48
984.81	1080.63
985.10	1067.75
985.39	1071.97
985.68	1078.99
985.97	1078.28
986.27	1073.14
986.56	1078.52
986.85	1070.80
987.14	1069.86
987.43	1072.67
987.72	1077.35
988.01	1077.58
988.31	1078.75
988.60	1085.31
988.89	1090.69
989.18	1089.05
989.47	1082.50
989.76	1089.05
990.05	1084.37
990.34	1092.56
990.63	1086.94
990.92	1085.54
991.21	1093.97
991.51	1094.43
991.80	1086.24
992.09	1100.99
992.38	1111.05
992.67	1098.88
992.96	1093.50
993.25	1089.05
993.54	1077.82
993.83	1066.11
994.12	1064.48
994.41	1058.16
994.70	1064.01
994.99	1072.43
995.28	1077.58
995.57	1077.82
995.86	1083.43
996.15	1079.22
996.44	1071.26
996.73	1072.67
997.02	1083.90
997.31	1084.60
997.59	1090.69
997.88	1099.82
998.17	1097.01
998.46	1087.65
998.75	1078.05
999.04	1076.88
999.33	1082.03
999.62	1074.77
999.91	1071.26
1000.20	1077.82
1000.49	1079.46
1000.77	1080.63
1001.06	1089.75
1001.35	1094.67
1001.64	1091.86
1001.93	1092.09
1002.22	1089.29
1002.51	1100.52
1002.79	1102.16
1003.08	1105.20
1003.37	1094.67
1003.66	1101.69
1003.95	1088.58
1004.23	1088.12
1004.52	1085.07
1004.81	1089.99
1005.10	1070.80
1005.39	1073.37
1005.67	1070.09
1005.96	1075.48
1006.25	1078.99
1006.54	1073.37
1006.83	1064.24
1007.11	1064.71
1007.40	1056.75
1007.69	1057.92
1007.97	1075.24
1008.26	1086.94
1008.55	1090.22
1008.84	1097.95
1009.12	1087.88
1009.41	1080.63
1009.70	1084.14
1009.98	1077.11
1010.27	1079.92
1010.56	1079.69
1010.85	1083.43
1011.13	1076.88
1011.42	1080.86
1011.71	1077.11
1011.99	1080.16
1012.28	1068.92
1012.56	1064.71
1012.85	1072.67
1013.14	1067.52
1013.42	1075.01
1013.71	1077.11
1014.00	1086.71
1014.28	1076.65
1014.57	1082.03
1014.85	1068.92
1015.14	1069.39
1015.43	1066.58
1015.71	1059.56
1016.00	1064.48
1016.28	1075.24
1016.57	1077.11
1016.85	1076.65
1017.14	1093.50
1017.43	1097.01
1017.71	1087.41
1018.00	1092.33
1018.28	1092.56
1018.57	1089.99
1018.85	1079.92
1019.14	1074.07
1019.42	1069.86
1019.71	1065.88
1019.99	1067.28
1020.28	1066.11
1020.56	1083.90
1020.85	1087.18
1021.13	1100.75
1021.42	1095.60
1021.70	1105.44
1021.99	1100.05
1022.27	1102.63
1022.55	1084.84
1022.84	1090.69
>>>>>End Processed Spectral Data<<<<<
