SpectraSuite Data File
++++++++++++++++++++++++++++++++++++
Date: Mon Aug 26 10:25:58 PDT 2019
User: corrico
Dark Spectrum Present: No
Reference Spectrum Present: No
Number of Sampled Component Spectra: 1
Spectrometers: USB2+H06089
Integration Time (usec): 10000 (USB2+H06089)
Spectra Averaged: 2 (USB2+H06089)
Boxcar Smoothing: 2 (USB2+H06089)
Correct for Electrical Dark: No (USB2+H06089)
Strobe/Lamp Enabled: No (USB2+H06089)
Correct for Detector Non-linearity: No (USB2+H06089)
Correct for Stray Light: No (USB2+H06089)
Number of Pixels in Processed Spectrum: 2048
>>>>>Begin Processed Spectral Data<<<<<
339.70	1052.07
340.07	1052.07
340.45	1016.73
340.82	994.73
341.19	967.11
341.57	932.70
341.94	923.11
342.31	924.04
342.69	925.92
343.06	922.87
343.43	930.83
343.81	926.62
344.18	911.40
344.55	902.28
344.93	916.79
345.30	920.30
345.67	923.58
346.04	936.92
346.42	943.47
346.79	948.62
347.16	950.96
347.54	957.28
347.91	969.22
348.28	977.17
348.65	983.49
349.03	999.17
349.40	1015.56
349.77	1023.52
350.14	1030.07
350.52	1030.30
350.89	1031.94
351.26	1031.47
351.63	1043.88
352.01	1054.65
352.38	1056.99
352.75	1070.56
353.12	1078.52
353.50	1067.52
353.87	1068.92
354.24	1080.16
354.61	1073.37
354.98	1081.09
355.36	1098.18
355.73	1101.46
356.10	1110.82
356.47	1115.73
356.84	1106.37
357.22	1092.80
357.59	1082.50
357.96	1068.22
358.33	1055.58
358.70	1054.41
359.08	1051.84
359.45	1068.69
359.82	1067.52
360.19	1076.18
360.56	1080.16
360.94	1086.94
361.31	1079.92
361.68	1089.05
362.05	1088.82
362.42	1085.31
362.79	1086.71
363.16	1082.73
363.54	1072.90
363.91	1079.92
364.28	1081.56
364.65	1070.33
365.02	1068.92
365.39	1071.97
365.76	1067.99
366.14	1066.82
366.51	1075.71
366.88	1078.75
367.25	1078.05
367.62	1067.05
367.99	1067.28
368.36	1056.05
368.73	1057.22
369.10	1059.33
369.48	1071.26
369.85	1071.26
370.22	1085.31
370.59	1083.67
370.96	1075.24
371.33	1066.35
371.70	1061.90
372.07	1060.50
372.44	1061.20
372.81	1068.22
373.18	1067.52
373.55	1066.11
373.93	1057.69
374.30	1047.39
374.67	1049.73
375.04	1056.05
375.41	1061.20
375.78	1075.01
376.15	1089.99
376.52	1084.14
376.89	1085.77
377.26	1079.69
377.63	1064.01
378.00	1061.20
378.37	1060.96
378.74	1060.50
379.11	1058.86
379.48	1062.37
379.85	1059.09
380.22	1060.26
380.59	1056.52
380.96	1072.90
381.33	1070.56
381.70	1075.01
382.07	1069.39
382.44	1071.97
382.81	1064.48
383.18	1072.20
383.55	1063.54
383.92	1066.11
384.29	1071.97
384.66	1074.77
385.03	1069.39
385.40	1082.73
385.77	1081.80
386.14	1077.58
386.51	1071.03
386.88	1070.80
387.25	1064.24
387.62	1068.92
387.99	1067.52
388.36	1062.84
388.73	1072.67
389.10	1071.97
389.46	1073.37
389.83	1073.37
390.20	1071.73
390.57	1063.54
390.94	1058.39
391.31	1051.37
391.68	1048.33
392.05	1048.79
392.42	1057.22
392.79	1055.82
393.16	1060.73
393.53	1071.50
393.89	1085.31
394.26	1074.31
394.63	1077.58
395.00	1079.92
395.37	1071.03
395.74	1067.28
396.11	1070.56
396.48	1074.54
396.84	1079.22
397.21	1072.67
397.58	1079.22
397.95	1071.97
398.32	1061.90
398.69	1053.01
399.06	1064.71
399.42	1061.43
399.79	1072.43
400.16	1081.33
400.53	1080.16
400.90	1071.50
401.27	1073.60
401.64	1065.18
402.00	1064.48
402.37	1069.62
402.74	1067.75
403.11	1069.16
403.48	1077.58
403.84	1080.16
404.21	1084.60
404.58	1088.82
404.95	1088.58
405.32	1087.41
405.68	1082.97
406.05	1074.54
406.42	1082.50
406.79	1078.99
407.16	1084.84
407.52	1094.67
407.89	1097.24
408.26	1096.07
408.63	1093.73
408.99	1078.99
409.36	1072.43
409.73	1069.86
410.10	1064.24
410.47	1067.05
410.83	1073.14
411.20	1074.77
411.57	1078.28
411.94	1086.01
412.30	1089.52
412.67	1094.20
413.04	1087.65
413.40	1081.56
413.77	1074.07
414.14	1073.37
414.51	1076.18
414.87	1083.67
415.24	1095.60
415.61	1100.29
415.97	1099.12
416.34	1106.61
416.71	1105.20
417.08	1101.46
417.44	1093.50
417.81	1082.50
418.18	1070.09
418.54	1068.45
418.91	1066.82
419.28	1067.52
419.64	1065.41
420.01	1068.22
420.38	1075.24
420.74	1073.84
421.11	1071.26
421.48	1078.99
421.84	1078.99
422.21	1070.80
422.58	1075.71
422.94	1083.67
423.31	1088.35
423.68	1094.20
424.04	1098.18
424.41	1097.24
424.77	1099.82
425.14	1100.75
425.51	1090.92
425.87	1093.50
426.24	1097.95
426.61	1092.09
426.97	1088.82
427.34	1093.97
427.70	1086.94
428.07	1077.35
428.44	1080.16
428.80	1075.94
429.17	1077.11
429.53	1076.65
429.90	1088.12
430.27	1090.69
430.63	1094.43
431.00	1094.20
431.36	1099.58
431.73	1087.41
432.09	1084.84
432.46	1076.18
432.83	1067.99
433.19	1062.37
433.56	1060.50
433.92	1055.11
434.29	1065.41
434.65	1069.86
435.02	1071.50
435.38	1069.86
435.75	1078.99
436.11	1076.65
436.48	1073.14
436.84	1065.65
437.21	1069.86
437.57	1062.37
437.94	1053.71
438.30	1056.28
438.67	1053.94
439.03	1057.45
439.40	1064.71
439.76	1075.01
440.13	1083.90
440.49	1095.37
440.86	1095.14
441.22	1085.77
441.59	1086.48
441.95	1080.63
442.32	1080.16
442.68	1080.39
443.05	1091.39
443.41	1090.69
443.78	1083.67
444.14	1080.16
444.51	1077.58
444.87	1071.73
445.24	1068.92
445.60	1069.39
445.96	1073.60
446.33	1081.80
446.69	1080.16
447.06	1083.67
447.42	1075.24
447.79	1077.11
448.15	1067.75
448.51	1081.33
448.88	1082.03
449.24	1101.22
449.61	1096.54
449.97	1104.03
450.33	1097.71
450.70	1090.22
451.06	1082.97
451.43	1081.56
451.79	1074.07
452.15	1072.90
452.52	1070.33
452.88	1065.88
453.24	1072.67
453.61	1074.54
453.97	1077.11
454.34	1082.73
454.70	1089.99
455.06	1087.65
455.43	1085.31
455.79	1087.41
456.15	1090.69
456.52	1096.31
456.88	1094.43
457.24	1097.48
457.61	1092.56
457.97	1089.75
458.33	1081.80
458.70	1090.92
459.06	1089.52
459.42	1084.60
459.79	1087.65
460.15	1096.78
460.51	1084.60
460.88	1089.99
461.24	1095.14
461.60	1094.43
461.96	1075.94
462.33	1077.58
462.69	1081.56
463.05	1082.03
463.42	1081.56
463.78	1092.80
464.14	1094.90
464.50	1083.20
464.87	1067.75
465.23	1056.28
465.59	1046.69
465.95	1051.84
466.32	1059.79
466.68	1075.71
467.04	1086.48
467.40	1094.20
467.77	1097.71
468.13	1089.99
468.49	1084.37
468.85	1083.20
469.22	1097.24
469.58	1084.84
469.94	1092.09
470.30	1102.16
470.66	1108.01
471.03	1108.01
471.39	1109.88
471.75	1112.22
472.11	1101.46
472.47	1092.80
472.84	1076.88
473.20	1079.69
473.56	1079.92
473.92	1083.20
474.28	1095.60
474.65	1097.95
475.01	1092.80
475.37	1092.56
475.73	1095.60
476.09	1087.65
476.45	1080.16
476.81	1079.22
477.18	1069.16
477.54	1063.31
477.90	1061.43
478.26	1064.24
478.62	1071.73
478.98	1081.09
479.34	1082.97
479.71	1081.80
480.07	1089.52
480.43	1083.90
480.79	1083.67
481.15	1077.82
481.51	1083.67
481.87	1082.50
482.23	1092.56
482.59	1085.77
482.96	1084.37
483.32	1081.33
483.68	1090.22
484.04	1087.18
484.40	1083.43
484.76	1102.63
485.12	1096.31
485.48	1085.77
485.84	1086.71
486.20	1095.37
486.56	1079.92
486.92	1081.80
487.28	1075.01
487.64	1070.56
488.00	1065.41
488.37	1069.16
488.73	1067.05
489.09	1080.63
489.45	1088.12
489.81	1089.75
490.17	1092.09
490.53	1095.60
490.89	1083.20
491.25	1074.07
491.61	1079.22
491.97	1085.31
492.33	1095.37
492.69	1100.05
493.05	1101.46
493.41	1104.73
493.77	1095.37
494.13	1089.05
494.49	1090.46
494.85	1082.26
495.21	1067.52
495.57	1067.75
495.93	1071.73
496.29	1065.88
496.64	1071.03
497.00	1074.31
497.36	1075.01
497.72	1072.43
498.08	1073.84
498.44	1082.26
498.80	1086.94
499.16	1082.73
499.52	1086.71
499.88	1089.05
500.24	1083.43
500.60	1085.07
500.96	1086.71
501.32	1086.24
501.68	1093.50
502.03	1095.60
502.39	1085.54
502.75	1087.88
503.11	1084.14
503.47	1078.99
503.83	1077.35
504.19	1084.14
504.55	1084.37
504.91	1090.92
505.26	1092.09
505.62	1095.14
505.98	1086.71
506.34	1085.54
506.70	1073.84
507.06	1070.33
507.42	1064.94
507.78	1066.11
508.13	1059.33
508.49	1060.96
508.85	1063.31
509.21	1069.86
509.57	1077.11
509.93	1077.82
510.28	1076.88
510.64	1077.82
511.00	1079.92
511.36	1080.63
511.72	1084.37
512.07	1097.48
512.43	1096.31
512.79	1102.63
513.15	1096.78
513.51	1103.09
513.86	1094.20
514.22	1098.88
514.58	1085.07
514.94	1103.33
515.30	1105.67
515.65	1112.22
516.01	1100.75
516.37	1106.37
516.73	1095.84
517.08	1091.16
517.44	1082.26
517.80	1093.50
518.16	1092.80
518.51	1083.90
518.87	1091.16
519.23	1095.84
519.59	1093.50
519.94	1103.09
520.30	1116.67
520.66	1129.78
521.01	1131.41
521.37	1134.46
521.73	1122.99
522.09	1123.69
522.44	1099.35
522.80	1093.50
523.16	1092.80
523.51	1099.58
523.87	1098.65
524.23	1108.71
524.58	1112.92
524.94	1111.99
525.30	1105.67
525.65	1101.69
526.01	1105.20
526.37	1104.97
526.72	1111.52
527.08	1111.29
527.44	1113.16
527.79	1102.63
528.15	1105.67
528.51	1100.05
528.86	1102.16
529.22	1101.92
529.58	1101.46
529.93	1089.75
530.29	1085.54
530.65	1079.46
531.00	1076.88
531.36	1083.90
531.71	1087.88
532.07	1082.50
532.43	1082.73
532.78	1085.07
533.14	1080.39
533.49	1083.67
533.85	1099.82
534.21	1102.16
534.56	1105.90
534.92	1108.48
535.27	1113.86
535.63	1101.69
535.98	1099.35
536.34	1090.22
536.69	1086.01
537.05	1076.65
537.41	1076.65
537.76	1082.97
538.12	1089.75
538.47	1096.31
538.83	1101.46
539.18	1100.99
539.54	1095.14
539.89	1090.69
540.25	1088.58
540.60	1082.03
540.96	1082.03
541.31	1086.71
541.67	1088.12
542.02	1085.54
542.38	1092.56
542.73	1093.97
543.09	1095.14
543.44	1095.84
543.80	1098.65
544.15	1099.82
544.51	1097.01
544.86	1098.88
545.22	1105.20
545.57	1104.73
545.93	1097.01
546.28	1099.58
546.64	1092.09
546.99	1085.07
547.35	1082.73
547.70	1079.92
548.05	1077.58
548.41	1081.33
548.76	1077.82
549.12	1070.09
549.47	1080.86
549.83	1091.39
550.18	1091.39
550.53	1099.12
550.89	1102.86
551.24	1101.92
551.60	1097.24
551.95	1098.41
552.30	1086.94
552.66	1082.73
553.01	1082.26
553.37	1086.94
553.72	1086.24
554.07	1095.84
554.43	1100.75
554.78	1092.56
555.13	1079.22
555.49	1076.41
555.84	1074.07
556.19	1065.65
556.55	1075.48
556.90	1076.65
557.26	1074.54
557.61	1074.07
557.96	1083.20
558.32	1071.03
558.67	1080.16
559.02	1075.24
559.37	1074.54
559.73	1072.20
560.08	1070.56
560.43	1067.75
560.79	1071.73
561.14	1076.65
561.49	1081.09
561.85	1083.43
562.20	1077.58
562.55	1085.54
562.90	1079.92
563.26	1086.24
563.61	1085.07
563.96	1085.07
564.32	1074.54
564.67	1073.37
565.02	1061.43
565.37	1071.73
565.73	1067.52
566.08	1074.54
566.43	1075.01
566.78	1069.86
567.14	1063.77
567.49	1069.86
567.84	1074.54
568.19	1068.45
568.54	1080.16
568.90	1086.24
569.25	1085.31
569.60	1082.03
569.95	1095.14
570.31	1091.63
570.66	1097.95
571.01	1093.97
571.36	1097.24
571.71	1093.73
572.06	1087.88
572.42	1076.65
572.77	1082.03
573.12	1078.52
573.47	1069.86
573.82	1068.92
574.18	1064.71
574.53	1065.41
574.88	1064.94
575.23	1073.84
575.58	1082.03
575.93	1089.52
576.28	1077.58
576.64	1076.18
576.99	1070.33
577.34	1075.24
577.69	1071.03
578.04	1087.18
578.39	1085.31
578.74	1085.31
579.09	1081.33
579.44	1081.56
579.80	1077.58
580.15	1078.28
580.50	1082.73
580.85	1080.63
581.20	1076.41
581.55	1075.24
581.90	1065.41
582.25	1061.90
582.60	1064.24
582.95	1080.39
583.30	1080.16
583.65	1084.14
584.00	1080.63
584.35	1077.11
584.71	1066.82
585.06	1067.99
585.41	1078.75
585.76	1076.41
586.11	1078.99
586.46	1078.28
586.81	1075.48
587.16	1071.50
587.51	1083.43
587.86	1082.26
588.21	1083.43
588.56	1087.41
588.91	1090.22
589.26	1086.94
589.61	1086.94
589.96	1086.24
590.31	1087.65
590.66	1088.58
591.01	1099.12
591.36	1105.20
591.71	1116.90
592.06	1104.73
592.41	1105.44
592.76	1095.37
593.10	1084.60
593.45	1077.35
593.80	1086.48
594.15	1084.37
594.50	1083.43
594.85	1086.24
595.20	1080.63
595.55	1081.80
595.90	1074.77
596.25	1072.43
596.60	1075.94
596.95	1077.35
597.30	1082.26
597.64	1141.01
597.99	1146.86
598.34	1150.37
598.69	1155.76
599.04	1143.12
599.39	1084.84
599.74	1088.12
600.09	1077.35
600.44	1077.35
600.78	1080.16
601.13	1087.41
601.48	1080.86
601.83	1078.52
602.18	1067.28
602.53	1069.39
602.88	1070.56
603.22	1065.65
603.57	1075.24
603.92	1083.67
604.27	1097.95
604.62	1095.60
604.97	1096.54
605.31	1100.75
605.66	1095.60
606.01	1082.03
606.36	1080.86
606.71	1088.35
607.05	1077.58
607.40	1080.63
607.75	1075.01
608.10	1072.67
608.44	1068.69
608.79	1078.52
609.14	1083.67
609.49	1083.67
609.84	1086.48
610.18	1089.05
610.53	1079.92
610.88	1077.58
611.23	1083.67
611.57	1088.35
611.92	1093.50
612.27	1103.09
612.62	1099.82
612.96	1092.33
613.31	1085.31
613.66	1070.56
614.00	1062.84
614.35	1063.07
614.70	1068.22
615.05	1067.99
615.39	1070.80
615.74	1075.01
616.09	1071.50
616.43	1074.54
616.78	1067.99
617.13	1076.88
617.47	1065.65
617.82	1071.03
618.17	1067.99
618.51	1078.52
618.86	1071.73
619.21	1088.58
619.55	1082.50
619.90	1091.16
620.25	1092.80
620.59	1096.07
620.94	1095.14
621.29	1107.54
621.63	1105.44
621.98	1101.46
622.32	1107.07
622.67	1095.60
623.02	1084.60
623.36	1082.26
623.71	1085.77
624.05	1076.18
624.40	1083.67
624.75	1088.82
625.09	1077.35
625.44	1071.50
625.78	1072.90
626.13	1071.03
626.48	1068.92
626.82	1082.03
627.17	1078.99
627.51	1083.67
627.86	1090.69
628.20	1084.84
628.55	1090.46
628.89	1089.29
629.24	1088.58
629.58	1075.24
629.93	1076.65
630.28	1079.46
630.62	1080.16
630.97	1079.92
631.31	1086.71
631.66	1091.86
632.00	1070.56
632.35	1072.43
632.69	1072.67
633.04	1067.75
633.38	1062.84
633.73	1069.16
634.07	1075.94
634.42	1072.67
634.76	1078.75
635.11	1078.75
635.45	1088.12
635.79	1081.33
636.14	1084.84
636.48	1085.77
636.83	1088.58
637.17	1087.88
637.52	1092.33
637.86	1103.09
638.21	1097.95
638.55	1102.86
638.89	1102.86
639.24	1096.07
639.58	1083.90
639.93	1083.43
640.27	1091.39
640.61	1082.50
640.96	1078.99
641.30	1084.60
641.65	1091.39
641.99	1088.82
642.33	1093.97
642.68	1106.37
643.02	1097.48
643.37	1090.46
643.71	1084.60
644.05	1082.73
644.40	1084.37
644.74	1094.90
645.08	1100.99
645.43	1096.78
645.77	1093.26
646.11	1096.54
646.46	1083.67
646.80	1083.43
647.14	1078.99
647.49	1086.01
647.83	1079.69
648.17	1081.80
648.52	1083.43
648.86	1097.71
649.20	1091.86
649.55	1098.65
649.89	1094.20
650.23	1088.58
650.57	1070.33
650.92	1071.97
651.26	1057.22
651.60	1065.65
651.95	1058.39
652.29	1063.07
652.63	1060.50
652.97	1066.35
653.32	1070.56
653.66	1075.71
654.00	1078.99
654.34	1088.35
654.69	1087.88
655.03	1086.71
655.37	1088.82
655.71	1092.33
656.05	1096.31
656.40	1091.63
656.74	1093.50
657.08	1096.07
657.42	1097.24
657.76	1083.43
658.11	1089.29
658.45	1081.33
658.79	1075.48
659.13	1076.41
659.47	1084.60
659.82	1085.77
660.16	1087.88
660.50	1087.18
660.84	1085.77
661.18	1073.14
661.52	1072.20
661.87	1070.56
662.21	1075.01
662.55	1066.82
662.89	1071.73
663.23	1057.69
663.57	1063.54
663.91	1071.73
664.25	1078.75
664.60	1090.69
664.94	1098.65
665.28	1099.12
665.62	1089.75
665.96	1085.77
666.30	1082.50
666.64	1093.26
666.98	1090.46
667.32	1089.52
667.66	1093.97
668.01	1087.88
668.35	1078.28
668.69	1074.77
669.03	1073.60
669.37	1070.33
669.71	1065.88
670.05	1071.26
670.39	1075.01
670.73	1087.65
671.07	1097.48
671.41	1098.41
671.75	1098.65
672.09	1102.39
672.43	1093.26
672.77	1076.65
673.11	1080.86
673.45	1081.56
673.79	1074.77
674.13	1061.43
674.47	1067.52
674.81	1069.39
675.15	1061.67
675.49	1069.86
675.83	1082.50
676.17	1085.31
676.51	1094.43
676.85	1098.41
677.19	1080.63
677.53	1078.28
677.87	1075.01
678.21	1059.33
678.55	1063.07
678.89	1066.35
679.23	1066.11
679.57	1062.60
679.90	1064.94
680.24	1069.39
680.58	1075.71
680.92	1073.84
681.26	1074.77
681.60	1067.05
681.94	1057.22
682.28	1054.88
682.62	1061.43
682.96	1060.50
683.29	1068.92
683.63	1071.73
683.97	1063.31
684.31	1064.01
684.65	1068.92
684.99	1066.11
685.33	1065.41
685.67	1070.80
686.00	1068.69
686.34	1065.88
686.68	1072.43
687.02	1079.46
687.36	1082.26
687.70	1083.90
688.03	1094.90
688.37	1092.09
688.71	1091.63
689.05	1093.50
689.39	1091.86
689.72	1091.16
690.06	1087.88
690.40	1084.60
690.74	1086.71
691.08	1078.75
691.41	1075.71
691.75	1072.67
692.09	1070.56
692.43	1066.35
692.76	1076.65
693.10	1072.43
693.44	1080.63
693.78	1075.48
694.11	1075.71
694.45	1071.73
694.79	1062.14
695.13	1058.86
695.46	1054.41
695.80	1054.41
696.14	1046.69
696.48	1046.69
696.81	1048.33
697.15	1055.58
697.49	1056.52
697.82	1066.11
698.16	1078.75
698.50	1081.80
698.83	1074.54
699.17	1080.86
699.51	1081.56
699.84	1075.71
700.18	1075.48
700.52	1088.58
700.85	1084.60
701.19	1081.56
701.53	1093.97
701.86	1089.29
702.20	1084.37
702.54	1085.54
702.87	1096.78
703.21	1096.78
703.55	1105.67
703.88	1112.92
704.22	1111.05
704.55	1085.54
704.89	1073.37
705.23	1068.92
705.56	1067.99
705.90	1071.03
706.23	1087.41
706.57	1083.90
706.91	1080.16
707.24	1073.84
707.58	1082.73
707.91	1081.09
708.25	1094.67
708.58	1099.35
708.92	1097.71
709.26	1080.63
709.59	1081.56
709.93	1077.35
710.26	1069.62
710.60	1074.77
710.93	1077.11
711.27	1070.56
711.60	1067.75
711.94	1061.20
712.27	1053.94
712.61	1059.33
712.94	1068.69
713.28	1057.45
713.61	1065.65
713.95	1070.09
714.28	1060.26
714.62	1050.20
714.95	1064.71
715.29	1066.11
715.62	1071.50
715.96	1072.43
716.29	1085.31
716.63	1083.90
716.96	1089.52
717.29	1087.65
717.63	1099.58
717.96	1089.52
718.30	1082.26
718.63	1078.28
718.97	1075.24
719.30	1068.92
719.63	1070.56
719.97	1078.52
720.30	1080.16
720.64	1084.14
720.97	1088.82
721.30	1097.71
721.64	1100.75
721.97	1103.09
722.31	1098.88
722.64	1098.41
722.97	1096.78
723.31	1087.41
723.64	1090.22
723.97	1086.94
724.31	1085.31
724.64	1081.80
724.98	1089.99
725.31	1079.69
725.64	1085.31
725.98	1086.48
726.31	1078.05
726.64	1066.35
726.97	1075.48
727.31	1069.62
727.64	1064.24
727.97	1081.09
728.31	1084.14
728.64	1075.01
728.97	1075.48
729.31	1079.92
729.64	1076.18
729.97	1083.90
730.30	1088.12
730.64	1091.86
730.97	1088.58
731.30	1089.29
731.63	1094.43
731.97	1091.63
732.30	1089.29
732.63	1097.01
732.96	1100.52
733.30	1095.37
733.63	1100.52
733.96	1100.29
734.29	1093.26
734.63	1073.37
734.96	1074.31
735.29	1075.01
735.62	1067.05
735.95	1071.26
736.29	1077.35
736.62	1067.28
736.95	1066.35
737.28	1065.18
737.61	1059.56
737.94	1062.84
738.28	1062.84
738.61	1059.09
738.94	1076.18
739.27	1079.46
739.60	1087.88
739.93	1090.92
740.27	1089.52
740.60	1074.07
740.93	1075.94
741.26	1075.71
741.59	1093.26
741.92	1103.09
742.25	1119.48
742.58	1118.07
742.91	1103.56
743.25	1084.14
743.58	1077.82
743.91	1065.41
744.24	1068.69
744.57	1073.60
744.90	1087.88
745.23	1082.03
745.56	1084.84
745.89	1082.97
746.22	1081.09
746.55	1079.69
746.88	1085.07
747.21	1079.22
747.54	1078.05
747.87	1084.60
748.20	1084.37
748.53	1081.80
748.87	1090.22
749.20	1090.46
749.53	1095.14
749.86	1081.09
750.19	1085.54
750.52	1085.54
750.85	1081.80
751.18	1078.99
751.51	1082.73
751.84	1086.24
752.16	1089.75
752.49	1092.33
752.82	1086.48
753.15	1090.46
753.48	1083.20
753.81	1077.35
754.14	1078.52
754.47	1084.14
754.80	1080.63
755.13	1082.50
755.46	1085.77
755.79	1086.94
756.12	1082.73
756.45	1089.29
756.78	1090.22
757.11	1093.03
757.43	1093.03
757.76	1095.37
758.09	1099.12
758.42	1092.56
758.75	1086.94
759.08	1086.48
759.41	1082.03
759.74	1072.20
760.07	1086.48
760.39	1086.94
760.72	1076.65
761.05	1078.05
761.38	1083.43
761.71	1074.31
762.04	1077.58
762.36	1086.94
762.69	1085.07
763.02	1084.60
763.35	1078.75
763.68	1079.69
764.01	1078.75
764.33	1078.75
764.66	1070.56
764.99	1077.82
765.32	1073.60
765.65	1068.22
765.97	1068.69
766.30	1069.62
766.63	1067.75
766.96	1058.39
767.28	1051.13
767.61	1042.24
767.94	1042.24
768.27	1044.82
768.59	1056.99
768.92	1065.65
769.25	1086.94
769.58	1087.41
769.90	1089.05
770.23	1091.39
770.56	1093.97
770.89	1085.54
771.21	1083.20
771.54	1082.97
771.87	1089.29
772.19	1095.37
772.52	1098.18
772.85	1094.20
773.17	1086.01
773.50	1085.77
773.83	1087.88
774.15	1083.90
774.48	1093.50
774.81	1100.29
775.13	1092.56
775.46	1096.54
775.79	1095.84
776.11	1085.54
776.44	1082.50
776.77	1082.73
777.09	1072.43
777.42	1072.90
777.74	1078.99
778.07	1077.11
778.40	1074.54
778.72	1066.35
779.05	1071.73
779.37	1086.48
779.70	1091.16
780.03	1095.37
780.35	1104.26
780.68	1097.01
781.00	1088.12
781.33	1086.48
781.65	1097.01
781.98	1090.92
782.31	1085.77
782.63	1093.50
782.96	1090.69
783.28	1084.37
783.61	1085.31
783.93	1094.43
784.26	1086.94
784.58	1093.97
784.91	1089.99
785.23	1096.07
785.56	1100.29
785.88	1105.67
786.21	1100.05
786.53	1097.24
786.86	1109.41
787.18	1102.39
787.51	1093.73
787.83	1084.84
788.16	1075.71
788.48	1058.16
788.81	1052.30
789.13	1053.48
789.46	1064.94
789.78	1068.92
790.10	1068.22
790.43	1070.80
790.75	1080.16
791.08	1082.26
791.40	1082.97
791.73	1093.73
792.05	1095.14
792.37	1087.88
792.70	1085.07
793.02	1082.50
793.35	1070.33
793.67	1064.94
793.99	1054.41
794.32	1054.65
794.64	1059.56
794.96	1069.62
795.29	1082.97
795.61	1090.46
795.93	1084.84
796.26	1086.71
796.58	1083.20
796.91	1074.31
797.23	1081.09
797.55	1089.29
797.87	1088.12
798.20	1097.24
798.52	1100.75
798.84	1095.37
799.17	1086.24
799.49	1090.69
799.81	1067.28
800.14	1067.75
800.46	1069.16
800.78	1089.29
801.10	1094.67
801.43	1108.48
801.75	1099.12
802.07	1100.52
802.40	1086.94
802.72	1078.05
803.04	1066.11
803.36	1074.54
803.69	1074.77
804.01	1073.60
804.33	1073.14
804.65	1079.22
804.97	1086.24
805.30	1092.33
805.62	1090.22
805.94	1101.46
806.26	1101.46
806.58	1099.58
806.91	1093.26
807.23	1093.97
807.55	1079.92
807.87	1077.35
808.19	1065.88
808.52	1064.94
808.84	1075.94
809.16	1084.60
809.48	1084.60
809.80	1090.22
810.12	1092.09
810.44	1090.69
810.77	1085.07
811.09	1090.46
811.41	1079.92
811.73	1066.82
812.05	1054.18
812.37	1058.62
812.69	1065.18
813.01	1090.69
813.33	1102.16
813.66	1101.46
813.98	1097.48
814.30	1097.01
814.62	1088.35
814.94	1084.84
815.26	1083.90
815.58	1088.58
815.90	1086.94
816.22	1089.99
816.54	1084.60
816.86	1088.58
817.18	1080.39
817.50	1078.52
817.82	1063.07
818.14	1073.14
818.46	1074.07
818.78	1076.18
819.10	1077.82
819.42	1085.07
819.74	1065.65
820.06	1072.67
820.38	1068.69
820.70	1065.88
821.02	1076.41
821.34	1092.80
821.66	1089.75
821.98	1089.05
822.30	1079.69
822.62	1070.09
822.94	1072.90
823.26	1070.56
823.58	1081.56
823.90	1089.05
824.22	1091.39
824.54	1084.37
824.86	1086.01
825.18	1092.56
825.50	1096.31
825.81	1094.67
826.13	1102.86
826.45	1102.39
826.77	1090.92
827.09	1090.46
827.41	1092.80
827.73	1091.86
828.05	1095.37
828.36	1090.46
828.68	1081.09
829.00	1088.58
829.32	1078.28
829.64	1076.65
829.96	1083.20
830.28	1092.33
830.59	1074.77
830.91	1083.67
831.23	1080.86
831.55	1078.52
831.87	1084.14
832.19	1088.82
832.50	1090.69
832.82	1089.29
833.14	1092.56
833.46	1080.16
833.78	1079.22
834.09	1070.33
834.41	1064.24
834.73	1057.45
835.05	1050.90
835.36	1056.52
835.68	1062.37
836.00	1072.20
836.32	1068.22
836.63	1072.43
836.95	1066.82
837.27	1072.90
837.59	1066.35
837.90	1074.31
838.22	1083.20
838.54	1085.31
838.85	1074.77
839.17	1072.67
839.49	1069.62
839.80	1073.84
840.12	1072.43
840.44	1070.09
840.76	1077.11
841.07	1088.82
841.39	1091.63
841.71	1096.31
842.02	1102.63
842.34	1101.92
842.65	1103.09
842.97	1101.46
843.29	1090.46
843.60	1083.67
843.92	1083.67
844.24	1076.88
844.55	1071.97
844.87	1082.26
845.18	1087.18
845.50	1085.31
845.82	1080.16
846.13	1075.48
846.45	1064.48
846.76	1070.80
847.08	1062.84
847.40	1060.26
847.71	1064.48
848.03	1075.01
848.34	1081.33
848.66	1088.82
848.97	1093.50
849.29	1092.80
849.60	1092.33
849.92	1076.65
850.24	1090.46
850.55	1086.01
850.87	1089.52
851.18	1090.46
851.50	1093.03
851.81	1070.80
852.13	1070.56
852.44	1068.69
852.76	1068.45
853.07	1066.58
853.39	1090.92
853.70	1102.39
854.01	1100.05
854.33	1097.48
854.64	1093.97
854.96	1082.50
855.27	1075.94
855.59	1078.99
855.90	1079.92
856.22	1083.20
856.53	1082.50
856.84	1089.05
857.16	1086.48
857.47	1090.69
857.79	1097.48
858.10	1098.88
858.41	1091.39
858.73	1090.22
859.04	1085.07
859.36	1078.75
859.67	1073.60
859.98	1069.86
860.30	1064.71
860.61	1071.97
860.92	1078.05
861.24	1084.14
861.55	1083.20
861.87	1089.29
862.18	1082.97
862.49	1088.58
862.81	1083.67
863.12	1093.03
863.43	1090.69
863.74	1094.67
864.06	1077.35
864.37	1077.11
864.68	1076.18
865.00	1081.56
865.31	1085.31
865.62	1093.26
865.94	1093.73
866.25	1087.41
866.56	1087.65
866.87	1076.18
867.19	1072.90
867.50	1066.58
867.81	1073.84
868.12	1069.86
868.44	1071.26
868.75	1079.92
869.06	1087.18
869.37	1081.09
869.68	1075.94
870.00	1078.99
870.31	1075.94
870.62	1077.35
870.93	1076.18
871.24	1087.41
871.56	1087.88
871.87	1082.73
872.18	1078.75
872.49	1082.03
872.80	1075.48
873.12	1072.43
873.43	1060.26
873.74	1052.30
874.05	1048.56
874.36	1051.13
874.67	1044.58
874.98	1068.22
875.29	1081.56
875.61	1071.97
875.92	1067.75
876.23	1077.58
876.54	1075.24
876.85	1068.45
877.16	1077.11
877.47	1084.60
877.78	1074.54
878.09	1073.37
878.40	1079.69
878.72	1086.71
879.03	1081.33
879.34	1088.35
879.65	1092.56
879.96	1095.14
880.27	1102.63
880.58	1108.48
880.89	1109.88
881.20	1099.35
881.51	1091.39
881.82	1076.18
882.13	1075.01
882.44	1074.54
882.75	1074.54
883.06	1073.60
883.37	1076.18
883.68	1076.18
883.99	1075.01
884.30	1077.82
884.61	1086.24
884.92	1090.92
885.23	1088.12
885.54	1090.46
885.85	1089.05
886.16	1076.65
886.47	1069.86
886.78	1058.39
887.08	1066.58
887.39	1071.97
887.70	1076.18
888.01	1081.33
888.32	1101.92
888.63	1092.56
888.94	1092.09
889.25	1093.50
889.56	1092.33
889.87	1083.20
890.17	1087.18
890.48	1076.18
890.79	1077.58
891.10	1085.77
891.41	1085.54
891.72	1071.97
892.03	1075.71
892.34	1078.99
892.64	1066.82
892.95	1070.56
893.26	1082.26
893.57	1089.99
893.88	1092.09
894.18	1106.61
894.49	1100.29
894.80	1099.58
895.11	1082.50
895.42	1086.48
895.72	1072.90
896.03	1076.88
896.34	1075.71
896.65	1091.63
896.96	1088.58
897.26	1080.39
897.57	1078.28
897.88	1087.18
898.19	1082.03
898.49	1074.07
898.80	1080.39
899.11	1078.75
899.41	1069.16
899.72	1075.24
900.03	1074.77
900.34	1073.84
900.64	1080.16
900.95	1088.58
901.26	1089.75
901.56	1089.52
901.87	1094.20
902.18	1088.35
902.48	1074.07
902.79	1068.92
903.10	1075.94
903.40	1071.97
903.71	1073.60
904.02	1088.82
904.32	1094.43
904.63	1093.26
904.94	1090.46
905.24	1089.99
905.55	1086.71
905.85	1083.43
906.16	1081.33
906.47	1089.05
906.77	1085.07
907.08	1080.16
907.38	1072.90
907.69	1074.31
908.00	1068.69
908.30	1077.82
908.61	1072.67
908.91	1080.39
909.22	1067.52
909.52	1079.92
909.83	1075.01
910.14	1080.63
910.44	1078.99
910.75	1087.41
911.05	1080.86
911.36	1070.80
911.66	1069.86
911.97	1065.41
912.27	1071.73
912.58	1076.65
912.88	1082.03
913.19	1078.75
913.49	1080.39
913.80	1066.58
914.10	1069.62
914.41	1071.97
914.71	1068.69
915.01	1063.54
915.32	1069.16
915.62	1055.35
915.93	1060.50
916.23	1053.01
916.54	1063.31
916.84	1068.69
917.15	1070.09
917.45	1068.45
917.75	1086.01
918.06	1084.60
918.36	1083.20
918.67	1085.31
918.97	1081.56
919.27	1068.92
919.58	1060.26
919.88	1062.14
920.18	1064.71
920.49	1067.28
920.79	1076.41
921.10	1075.94
921.40	1072.90
921.70	1073.84
922.01	1074.07
922.31	1078.99
922.61	1090.22
922.92	1090.69
923.22	1097.71
923.52	1099.12
923.82	1089.75
924.13	1078.52
924.43	1080.16
924.73	1075.01
925.04	1067.05
925.34	1069.16
925.64	1071.03
925.94	1073.37
926.25	1074.31
926.55	1080.16
926.85	1086.01
927.15	1090.22
927.46	1079.22
927.76	1076.88
928.06	1071.03
928.36	1071.03
928.67	1066.35
928.97	1074.07
929.27	1074.07
929.57	1069.62
929.87	1062.14
930.18	1065.18
930.48	1071.03
930.78	1069.16
931.08	1082.73
931.38	1080.63
931.69	1081.33
931.99	1075.48
932.29	1083.67
932.59	1082.97
932.89	1094.20
933.19	1100.99
933.49	1104.73
933.80	1107.31
934.10	1100.29
934.40	1087.65
934.70	1088.58
935.00	1075.01
935.30	1071.50
935.60	1080.39
935.90	1086.48
936.20	1084.84
936.50	1097.95
936.81	1085.54
937.11	1078.75
937.41	1075.94
937.71	1070.56
938.01	1069.86
938.31	1078.28
938.61	1080.39
938.91	1082.97
939.21	1090.46
939.51	1082.97
939.81	1075.94
940.11	1081.80
940.41	1074.77
940.71	1061.90
941.01	1056.99
941.31	1068.22
941.61	1066.58
941.91	1083.67
942.21	1083.43
942.51	1087.65
942.81	1075.01
943.11	1072.20
943.41	1060.50
943.71	1063.54
944.01	1073.60
944.31	1077.11
944.61	1079.69
944.90	1081.33
945.20	1088.58
945.50	1076.88
945.80	1081.33
946.10	1082.50
946.40	1088.35
946.70	1087.65
947.00	1102.63
947.30	1099.82
947.60	1097.24
947.89	1100.75
948.19	1097.95
948.49	1099.12
948.79	1099.35
949.09	1097.95
949.39	1086.71
949.69	1083.90
949.98	1071.26
950.28	1067.75
950.58	1072.67
950.88	1073.37
951.18	1084.60
951.48	1092.56
951.77	1097.24
952.07	1092.80
952.37	1095.37
952.67	1084.60
952.97	1076.18
953.26	1081.80
953.56	1084.14
953.86	1081.80
954.16	1084.14
954.45	1089.99
954.75	1082.03
955.05	1081.80
955.35	1075.94
955.64	1065.65
955.94	1066.82
956.24	1066.35
956.54	1075.01
956.83	1073.14
957.13	1080.63
957.43	1079.92
957.72	1082.26
958.02	1064.94
958.32	1064.24
958.61	1063.54
958.91	1054.88
959.21	1053.71
959.50	1064.48
959.80	1078.52
960.10	1082.50
960.39	1092.33
960.69	1093.97
960.99	1081.56
961.28	1068.45
961.58	1068.22
961.87	1067.28
962.17	1071.03
962.47	1065.88
962.76	1075.94
963.06	1077.35
963.36	1071.73
963.65	1073.14
963.95	1093.03
964.24	1093.73
964.54	1091.16
964.83	1089.52
965.13	1082.73
965.42	1069.62
965.72	1067.05
966.02	1067.28
966.31	1073.60
966.61	1076.65
966.90	1088.82
967.20	1082.97
967.49	1083.90
967.79	1080.86
968.08	1073.14
968.38	1070.80
968.67	1081.09
968.97	1077.11
969.26	1076.88
969.56	1083.43
969.85	1078.28
970.15	1083.20
970.44	1087.88
970.74	1092.09
971.03	1097.48
971.32	1101.92
971.62	1087.18
971.91	1087.18
972.21	1096.07
972.50	1089.05
972.80	1086.24
973.09	1094.20
973.38	1090.69
973.68	1080.63
973.97	1079.22
974.27	1081.33
974.56	1087.41
974.85	1079.46
975.15	1077.58
975.44	1086.71
975.73	1087.18
976.03	1068.45
976.32	1072.90
976.61	1072.43
976.91	1065.18
977.20	1059.56
977.49	1074.31
977.79	1080.16
978.08	1089.29
978.37	1088.58
978.67	1087.18
978.96	1086.71
979.25	1087.18
979.55	1083.90
979.84	1085.31
980.13	1094.67
980.42	1097.48
980.72	1091.39
981.01	1097.01
981.30	1104.73
981.59	1102.86
981.89	1099.82
982.18	1106.84
982.47	1093.26
982.76	1071.50
983.06	1064.01
983.35	1058.16
983.64	1050.90
983.93	1048.09
984.22	1061.67
984.52	1060.50
984.81	1052.30
985.10	1055.35
985.39	1069.16
985.68	1076.18
985.97	1086.94
986.27	1105.67
986.56	1100.29
986.85	1094.20
987.14	1087.41
987.43	1077.58
987.72	1065.88
988.01	1071.50
988.31	1068.45
988.60	1055.35
988.89	1050.43
989.18	1054.88
989.47	1060.26
989.76	1062.14
990.05	1074.77
990.34	1087.65
990.63	1094.90
990.92	1095.84
991.21	1089.99
991.51	1091.39
991.80	1083.90
992.09	1078.75
992.38	1072.43
992.67	1082.26
992.96	1087.18
993.25	1088.82
993.54	1090.69
993.83	1090.22
994.12	1081.33
994.41	1082.97
994.70	1084.14
994.99	1080.39
995.28	1085.31
995.57	1100.29
995.86	1094.20
996.15	1086.94
996.44	1094.90
996.73	1089.05
997.02	1082.73
997.31	1078.28
997.59	1080.86
997.88	1073.37
998.17	1078.52
998.46	1069.62
998.75	1067.99
999.04	1071.73
999.33	1068.69
999.62	1065.65
999.91	1064.48
1000.20	1073.14
1000.49	1064.48
1000.77	1072.67
1001.06	1076.65
1001.35	1079.69
1001.64	1064.01
1001.93	1076.18
1002.22	1067.05
1002.51	1075.71
1002.79	1077.82
1003.08	1088.82
1003.37	1089.52
1003.66	1078.99
1003.95	1067.99
1004.23	1071.97
1004.52	1070.56
1004.81	1063.07
1005.10	1068.69
1005.39	1078.52
1005.67	1067.28
1005.96	1068.22
1006.25	1069.86
1006.54	1089.05
1006.83	1079.92
1007.11	1090.69
1007.40	1101.92
1007.69	1102.39
1007.97	1095.14
1008.26	1095.60
1008.55	1095.60
1008.84	1084.14
1009.12	1082.50
1009.41	1071.50
1009.70	1072.43
1009.98	1065.65
1010.27	1066.82
1010.56	1073.84
1010.85	1084.84
1011.13	1078.99
1011.42	1091.86
1011.71	1087.88
1011.99	1079.22
1012.28	1071.03
1012.56	1081.33
1012.85	1068.45
1013.14	1068.22
1013.42	1070.80
1013.71	1069.16
1014.00	1057.69
1014.28	1060.26
1014.57	1065.88
1014.85	1062.60
1015.14	1065.88
1015.43	1064.94
1015.71	1058.62
1016.00	1064.71
1016.28	1071.03
1016.57	1073.60
1016.85	1075.48
1017.14	1097.71
1017.43	1089.52
1017.71	1092.56
1018.00	1089.05
1018.28	1095.37
1018.57	1090.46
1018.85	1095.60
1019.14	1089.29
1019.42	1099.12
1019.71	1097.24
1019.99	1089.75
1020.28	1078.75
1020.56	1092.33
1020.85	1088.12
1021.13	1096.31
1021.42	1095.60
1021.70	1103.33
1021.99	1095.84
1022.27	1096.78
1022.55	1094.20
1022.84	1095.37
>>>>>End Processed Spectral Data<<<<<
