SpectraSuite Data File
++++++++++++++++++++++++++++++++++++
Date: Mon Aug 26 10:25:56 PDT 2019
User: corrico
Dark Spectrum Present: No
Reference Spectrum Present: No
Number of Sampled Component Spectra: 1
Spectrometers: USB2+H06089
Integration Time (usec): 10000 (USB2+H06089)
Spectra Averaged: 2 (USB2+H06089)
Boxcar Smoothing: 2 (USB2+H06089)
Correct for Electrical Dark: No (USB2+H06089)
Strobe/Lamp Enabled: No (USB2+H06089)
Correct for Detector Non-linearity: No (USB2+H06089)
Correct for Stray Light: No (USB2+H06089)
Number of Pixels in Processed Spectrum: 2048
>>>>>Begin Processed Spectral Data<<<<<
339.70	1040.37
340.07	1040.37
340.45	995.43
340.82	975.77
341.19	951.66
341.57	929.19
341.94	925.92
342.31	924.75
342.69	920.77
343.06	916.32
343.43	914.45
343.81	906.96
344.18	902.28
344.55	903.91
344.93	909.53
345.30	923.34
345.67	922.64
346.04	927.55
346.42	926.38
346.79	934.81
347.16	933.17
347.54	951.19
347.91	962.43
348.28	982.56
348.65	994.96
349.03	1001.75
349.40	1008.07
349.77	1020.47
350.14	1031.94
350.52	1030.77
350.89	1028.90
351.26	1041.30
351.63	1046.22
352.01	1048.79
352.38	1064.71
352.75	1072.43
353.12	1066.11
353.50	1070.33
353.87	1061.90
354.24	1059.56
354.61	1065.88
354.98	1079.22
355.36	1078.28
355.73	1076.88
356.10	1077.35
356.47	1070.80
356.84	1064.24
357.22	1065.18
357.59	1070.33
357.96	1067.75
358.33	1085.07
358.70	1091.86
359.08	1091.39
359.45	1094.90
359.82	1084.60
360.19	1072.90
360.56	1065.18
360.94	1066.11
361.31	1060.73
361.68	1076.65
362.05	1082.03
362.42	1094.67
362.79	1095.84
363.16	1093.73
363.54	1078.28
363.91	1075.94
364.28	1070.09
364.65	1066.11
365.02	1071.26
365.39	1080.86
365.76	1071.03
366.14	1064.01
366.51	1054.65
366.88	1055.35
367.25	1046.22
367.62	1055.11
367.99	1058.62
368.36	1063.54
368.73	1059.09
369.10	1066.58
369.48	1062.37
369.85	1061.90
370.22	1065.88
370.59	1064.94
370.96	1064.94
371.33	1057.45
371.70	1051.84
372.07	1055.82
372.44	1067.52
372.81	1071.73
373.18	1075.94
373.55	1074.54
373.93	1066.82
374.30	1053.01
374.67	1050.43
375.04	1056.28
375.41	1059.09
375.78	1079.22
376.15	1093.03
376.52	1092.56
376.89	1092.09
377.26	1097.95
377.63	1083.90
378.00	1086.94
378.37	1082.73
378.74	1080.39
379.11	1078.05
379.48	1073.37
379.85	1060.73
380.22	1072.43
380.59	1074.54
380.96	1078.52
381.33	1078.05
381.70	1079.22
382.07	1067.05
382.44	1065.41
382.81	1071.50
383.18	1072.43
383.55	1075.01
383.92	1073.37
384.29	1075.71
384.66	1061.43
385.03	1061.90
385.40	1056.75
385.77	1065.65
386.14	1063.07
386.51	1069.16
386.88	1074.31
387.25	1075.71
387.62	1070.33
387.99	1075.48
388.36	1067.75
388.73	1067.28
389.10	1068.92
389.46	1071.97
389.83	1063.07
390.20	1068.69
390.57	1075.48
390.94	1075.71
391.31	1072.67
391.68	1076.41
392.05	1081.09
392.42	1066.58
392.79	1070.56
393.16	1077.11
393.53	1078.52
393.89	1064.94
394.26	1071.26
394.63	1069.86
395.00	1056.75
395.37	1060.50
395.74	1079.46
396.11	1073.60
396.48	1066.82
396.84	1080.63
397.21	1077.58
397.58	1070.33
397.95	1080.86
398.32	1084.14
398.69	1085.07
399.06	1090.92
399.42	1082.26
399.79	1072.20
400.16	1071.03
400.53	1067.52
400.90	1060.73
401.27	1073.84
401.64	1085.54
402.00	1093.26
402.37	1099.12
402.74	1104.73
403.11	1095.37
403.48	1090.46
403.84	1092.56
404.21	1078.99
404.58	1071.26
404.95	1078.99
405.32	1083.43
405.68	1078.52
406.05	1081.80
406.42	1083.90
406.79	1082.26
407.16	1071.97
407.52	1077.11
407.89	1082.73
408.26	1085.07
408.63	1080.86
408.99	1074.31
409.36	1063.77
409.73	1063.07
410.10	1063.77
410.47	1059.79
410.83	1061.90
411.20	1063.77
411.57	1062.60
411.94	1062.84
412.30	1065.18
412.67	1069.86
413.04	1080.86
413.40	1080.63
413.77	1084.37
414.14	1073.60
414.51	1076.65
414.87	1069.62
415.24	1064.24
415.61	1061.43
415.97	1073.84
416.34	1080.16
416.71	1074.31
417.08	1073.84
417.44	1069.16
417.81	1074.77
418.18	1070.80
418.54	1065.88
418.91	1067.05
419.28	1061.90
419.64	1054.18
420.01	1046.92
420.38	1061.90
420.74	1063.31
421.11	1071.73
421.48	1084.37
421.84	1086.24
422.21	1084.14
422.58	1082.97
422.94	1079.69
423.31	1066.82
423.68	1068.69
424.04	1060.96
424.41	1064.48
424.77	1060.96
425.14	1061.43
425.51	1066.58
425.87	1068.92
426.24	1063.54
426.61	1072.20
426.97	1077.35
427.34	1070.56
427.70	1064.71
428.07	1065.88
428.44	1062.37
428.80	1067.05
429.17	1069.39
429.53	1078.52
429.90	1083.20
430.27	1083.67
430.63	1081.33
431.00	1088.35
431.36	1079.22
431.73	1075.48
432.09	1084.84
432.46	1083.43
432.83	1074.31
433.19	1090.69
433.56	1093.03
433.92	1093.50
434.29	1095.60
434.65	1095.60
435.02	1081.80
435.38	1077.82
435.75	1074.54
436.11	1065.65
436.48	1074.77
436.84	1076.41
437.21	1074.77
437.57	1059.56
437.94	1060.96
438.30	1062.14
438.67	1060.50
439.03	1074.31
439.40	1089.29
439.76	1100.52
440.13	1088.82
440.49	1092.80
440.86	1095.84
441.22	1086.24
441.59	1075.24
441.95	1075.24
442.32	1073.84
442.68	1058.86
443.05	1061.67
443.41	1064.71
443.78	1065.18
444.14	1066.35
444.51	1074.31
444.87	1075.24
445.24	1070.56
445.60	1084.37
445.96	1081.09
446.33	1077.11
446.69	1077.35
447.06	1083.20
447.42	1075.48
447.79	1070.33
448.15	1065.65
448.51	1067.28
448.88	1061.20
449.24	1058.62
449.61	1070.56
449.97	1075.94
450.33	1069.39
450.70	1078.52
451.06	1074.77
451.43	1073.60
451.79	1078.52
452.15	1090.22
452.52	1087.18
452.88	1096.78
453.24	1091.63
453.61	1086.71
453.97	1078.99
454.34	1077.35
454.70	1074.77
455.06	1073.14
455.43	1067.75
455.79	1061.20
456.15	1053.71
456.52	1051.60
456.88	1057.22
457.24	1069.39
457.61	1075.71
457.97	1080.86
458.33	1080.16
458.70	1084.37
459.06	1070.09
459.42	1075.48
459.79	1088.58
460.15	1087.65
460.51	1077.11
460.88	1089.75
461.24	1090.46
461.60	1081.09
461.96	1084.37
462.33	1088.35
462.69	1087.18
463.05	1084.60
463.42	1089.29
463.78	1092.56
464.14	1091.16
464.50	1085.77
464.87	1082.03
465.23	1072.90
465.59	1069.62
465.95	1069.86
466.32	1073.84
466.68	1082.26
467.04	1084.84
467.40	1086.71
467.77	1094.90
468.13	1095.60
468.49	1087.88
468.85	1087.18
469.22	1089.05
469.58	1088.58
469.94	1083.43
470.30	1087.41
470.66	1085.54
471.03	1073.60
471.39	1075.71
471.75	1086.01
472.11	1075.94
472.47	1084.84
472.84	1089.29
473.20	1081.33
473.56	1063.77
473.92	1070.33
474.28	1068.69
474.65	1063.31
475.01	1067.99
475.37	1075.01
475.73	1072.43
476.09	1072.20
476.45	1080.39
476.81	1077.35
477.18	1079.92
477.54	1081.33
477.90	1077.11
478.26	1081.09
478.62	1086.48
478.98	1092.80
479.34	1100.75
479.71	1100.29
480.07	1097.24
480.43	1100.52
480.79	1094.67
481.15	1082.50
481.51	1085.54
481.87	1083.67
482.23	1087.18
482.59	1082.50
482.96	1090.69
483.32	1080.39
483.68	1077.58
484.04	1066.82
484.40	1074.54
484.76	1074.07
485.12	1085.77
485.48	1084.84
485.84	1086.48
486.20	1083.90
486.56	1087.65
486.92	1079.69
487.28	1091.39
487.64	1088.12
488.00	1086.94
488.37	1082.50
488.73	1084.84
489.09	1078.52
489.45	1084.14
489.81	1082.50
490.17	1078.52
490.53	1086.01
490.89	1089.29
491.25	1082.50
491.61	1081.56
491.97	1095.84
492.33	1090.92
492.69	1090.46
493.05	1093.03
493.41	1099.12
493.77	1084.84
494.13	1092.33
494.49	1092.09
494.85	1090.46
495.21	1093.03
495.57	1091.63
495.93	1085.07
496.29	1075.94
496.64	1079.46
497.00	1064.48
497.36	1067.75
497.72	1063.31
498.08	1069.39
498.44	1070.09
498.80	1077.82
499.16	1072.90
499.52	1078.75
499.88	1077.58
500.24	1073.84
500.60	1078.99
500.96	1086.24
501.32	1079.92
501.68	1075.48
502.03	1074.77
502.39	1066.82
502.75	1064.48
503.11	1069.62
503.47	1076.65
503.83	1078.28
504.19	1087.41
504.55	1089.52
504.91	1086.94
505.26	1091.63
505.62	1095.37
505.98	1087.18
506.34	1089.52
506.70	1095.14
507.06	1087.41
507.42	1090.46
507.78	1088.82
508.13	1086.01
508.49	1076.18
508.85	1080.39
509.21	1067.99
509.57	1074.54
509.93	1077.35
510.28	1078.52
510.64	1064.48
511.00	1068.69
511.36	1073.14
511.72	1072.43
512.07	1074.31
512.43	1083.67
512.79	1083.20
513.15	1077.11
513.51	1071.73
513.86	1076.65
514.22	1078.28
514.58	1078.52
514.94	1085.54
515.30	1092.56
515.65	1087.65
516.01	1085.77
516.37	1087.65
516.73	1084.14
517.08	1078.28
517.44	1081.33
517.80	1088.12
518.16	1094.67
518.51	1087.18
518.87	1092.09
519.23	1085.54
519.59	1080.39
519.94	1070.80
520.30	1076.41
520.66	1075.01
521.01	1078.52
521.37	1082.97
521.73	1083.67
522.09	1073.14
522.44	1072.43
522.80	1077.82
523.16	1070.80
523.51	1074.54
523.87	1082.26
524.23	1072.90
524.58	1078.75
524.94	1096.07
525.30	1097.95
525.65	1100.99
526.01	1102.16
526.37	1090.69
526.72	1079.92
527.08	1077.35
527.44	1079.46
527.79	1090.46
528.15	1091.86
528.51	1095.14
528.86	1089.29
529.22	1091.16
529.58	1088.58
529.93	1090.22
530.29	1083.90
530.65	1090.69
531.00	1091.39
531.36	1098.88
531.71	1103.56
532.07	1102.39
532.43	1094.20
532.78	1098.88
533.14	1087.65
533.49	1084.37
533.85	1089.05
534.21	1101.92
534.56	1089.05
534.92	1095.14
535.27	1108.24
535.63	1099.35
535.98	1094.67
536.34	1107.54
536.69	1115.03
537.05	1106.37
537.41	1115.03
537.76	1112.92
538.12	1113.63
538.47	1110.82
538.83	1100.29
539.18	1092.80
539.54	1088.35
539.89	1075.94
540.25	1065.18
540.60	1074.54
540.96	1080.86
541.31	1078.05
541.67	1083.43
542.02	1089.05
542.38	1085.31
542.73	1085.77
543.09	1095.60
543.44	1092.33
543.80	1091.39
544.15	1104.50
544.51	1105.20
544.86	1103.09
545.22	1105.20
545.57	1097.48
545.93	1084.14
546.28	1080.16
546.64	1087.88
546.99	1087.41
547.35	1096.54
547.70	1093.03
548.05	1092.33
548.41	1085.54
548.76	1085.31
549.12	1077.35
549.47	1091.16
549.83	1086.71
550.18	1086.71
550.53	1085.77
550.89	1090.22
551.24	1075.48
551.60	1081.33
551.95	1085.07
552.30	1086.94
552.66	1082.73
553.01	1087.88
553.37	1088.12
553.72	1088.12
554.07	1092.80
554.43	1090.69
554.78	1082.97
555.13	1080.63
555.49	1079.92
555.84	1073.84
556.19	1084.37
556.55	1098.88
556.90	1109.18
557.26	1109.65
557.61	1114.33
557.96	1101.46
558.32	1099.35
558.67	1084.84
559.02	1079.22
559.37	1076.18
559.73	1090.92
560.08	1085.54
560.43	1093.97
560.79	1096.54
561.14	1101.22
561.49	1092.80
561.85	1088.58
562.20	1093.73
562.55	1092.80
562.90	1086.94
563.26	1086.94
563.61	1093.73
563.96	1084.60
564.32	1076.65
564.67	1071.03
565.02	1082.03
565.37	1075.24
565.73	1074.77
566.08	1080.86
566.43	1080.39
566.78	1068.45
567.14	1071.50
567.49	1081.56
567.84	1083.67
568.19	1089.99
568.54	1093.50
568.90	1095.84
569.25	1090.92
569.60	1089.29
569.95	1087.65
570.31	1081.09
570.66	1084.37
571.01	1085.07
571.36	1079.22
571.71	1079.69
572.06	1085.77
572.42	1086.71
572.77	1079.22
573.12	1090.69
573.47	1091.16
573.82	1091.63
574.18	1082.03
574.53	1085.54
574.88	1076.41
575.23	1078.52
575.58	1086.48
575.93	1083.20
576.28	1084.84
576.64	1088.12
576.99	1084.14
577.34	1083.43
577.69	1092.09
578.04	1093.50
578.39	1085.07
578.74	1091.39
579.09	1081.09
579.44	1077.82
579.80	1072.20
580.15	1086.48
580.50	1085.77
580.85	1084.37
581.20	1088.58
581.55	1100.52
581.90	1099.58
582.25	1097.24
582.60	1103.80
582.95	1108.71
583.30	1093.73
583.65	1090.92
584.00	1079.69
584.35	1071.97
584.71	1061.90
585.06	1073.84
585.41	1070.80
585.76	1080.63
586.11	1086.94
586.46	1084.14
586.81	1082.97
587.16	1089.99
587.51	1087.65
587.86	1100.29
588.21	1105.90
588.56	1097.24
588.91	1094.90
589.26	1099.12
589.61	1086.24
589.96	1081.56
590.31	1083.20
590.66	1079.46
591.01	1072.43
591.36	1061.20
591.71	1063.31
592.06	1070.56
592.41	1068.22
592.76	1071.73
593.10	1089.99
593.45	1095.37
593.80	1084.37
594.15	1087.88
594.50	1088.12
594.85	1086.48
595.20	1081.33
595.55	1083.67
595.90	1078.52
596.25	1073.14
596.60	1064.94
596.95	1058.39
597.30	1066.35
597.64	1121.12
597.99	1124.63
598.34	1134.46
598.69	1142.88
599.04	1142.88
599.39	1085.54
599.74	1092.80
600.09	1092.56
600.44	1096.78
600.78	1089.05
601.13	1088.12
601.48	1082.97
601.83	1076.88
602.18	1065.18
602.53	1073.37
602.88	1085.54
603.22	1085.54
603.57	1080.63
603.92	1080.86
604.27	1077.11
604.62	1064.94
604.97	1065.88
605.31	1071.26
605.66	1077.58
606.01	1071.73
606.36	1076.41
606.71	1071.73
607.05	1070.09
607.40	1075.24
607.75	1080.16
608.10	1081.09
608.44	1080.16
608.79	1086.94
609.14	1085.54
609.49	1089.75
609.84	1082.50
610.18	1085.54
610.53	1090.46
610.88	1093.97
611.23	1090.92
611.57	1103.09
611.92	1101.22
612.27	1088.58
612.62	1082.50
612.96	1085.54
613.31	1081.33
613.66	1086.71
614.00	1088.35
614.35	1092.09
614.70	1091.16
615.05	1095.14
615.39	1093.97
615.74	1099.82
616.09	1088.58
616.43	1077.82
616.78	1082.26
617.13	1084.37
617.47	1083.43
617.82	1094.20
618.17	1103.80
618.51	1092.09
618.86	1093.73
619.21	1091.16
619.55	1093.03
619.90	1091.16
620.25	1100.29
620.59	1099.58
620.94	1100.29
621.29	1089.99
621.63	1089.05
621.98	1095.14
622.32	1092.09
622.67	1081.33
623.02	1088.12
623.36	1097.24
623.71	1087.88
624.05	1084.84
624.40	1083.20
624.75	1079.22
625.09	1069.39
625.44	1073.14
625.78	1069.16
626.13	1070.33
626.48	1075.71
626.82	1076.18
627.17	1068.45
627.51	1063.54
627.86	1068.69
628.20	1063.07
628.55	1062.37
628.89	1056.52
629.24	1070.80
629.58	1071.03
629.93	1074.31
630.28	1075.71
630.62	1089.75
630.97	1079.92
631.31	1075.01
631.66	1076.41
632.00	1075.48
632.35	1069.16
632.69	1086.24
633.04	1096.07
633.38	1089.52
633.73	1090.69
634.07	1085.54
634.42	1068.69
634.76	1069.16
635.11	1080.86
635.45	1081.80
635.79	1089.99
636.14	1097.24
636.48	1096.31
636.83	1085.07
637.17	1081.33
637.52	1080.16
637.86	1082.03
638.21	1081.33
638.55	1087.18
638.89	1094.43
639.24	1089.05
639.58	1082.03
639.93	1078.75
640.27	1089.52
640.61	1081.56
640.96	1080.86
641.30	1078.75
641.65	1075.48
641.99	1065.88
642.33	1075.24
642.68	1084.37
643.02	1089.05
643.37	1100.29
643.71	1101.22
644.05	1087.65
644.40	1082.50
644.74	1085.07
645.08	1079.22
645.43	1077.35
645.77	1077.11
646.11	1073.60
646.46	1065.88
646.80	1064.24
647.14	1056.05
647.49	1059.09
647.83	1066.58
648.17	1082.73
648.52	1076.88
648.86	1083.67
649.20	1093.50
649.55	1103.80
649.89	1085.07
650.23	1090.46
650.57	1085.54
650.92	1080.16
651.26	1066.82
651.60	1071.97
651.95	1075.48
652.29	1080.16
652.63	1074.54
652.97	1074.54
653.32	1074.54
653.66	1070.80
654.00	1073.84
654.34	1077.58
654.69	1079.22
655.03	1090.22
655.37	1093.97
655.71	1088.82
656.05	1093.26
656.40	1086.01
656.74	1082.73
657.08	1083.67
657.42	1085.54
657.76	1084.14
658.11	1087.65
658.45	1071.50
658.79	1061.20
659.13	1067.75
659.47	1072.90
659.82	1071.73
660.16	1081.80
660.50	1092.09
660.84	1074.07
661.18	1066.35
661.52	1067.99
661.87	1067.52
662.21	1063.31
662.55	1079.92
662.89	1085.07
663.23	1080.86
663.57	1085.54
663.91	1079.69
664.25	1072.20
664.60	1064.24
664.94	1078.99
665.28	1078.99
665.62	1090.92
665.96	1094.43
666.30	1090.46
666.64	1072.43
666.98	1064.01
667.32	1051.13
667.66	1047.39
668.01	1053.48
668.35	1065.18
668.69	1068.45
669.03	1074.54
669.37	1076.41
669.71	1078.52
670.05	1079.69
670.39	1086.71
670.73	1091.63
671.07	1101.22
671.41	1097.01
671.75	1098.88
672.09	1083.20
672.43	1072.90
672.77	1068.22
673.11	1065.41
673.45	1055.58
673.79	1060.73
674.13	1077.58
674.47	1080.39
674.81	1092.80
675.15	1095.60
675.49	1102.86
675.83	1089.75
676.17	1079.46
676.51	1078.75
676.85	1086.01
677.19	1081.09
677.53	1082.03
677.87	1081.09
678.21	1082.97
678.55	1073.84
678.89	1068.45
679.23	1064.01
679.57	1084.37
679.90	1080.39
680.24	1077.58
680.58	1076.88
680.92	1088.82
681.26	1081.09
681.60	1078.05
681.94	1088.12
682.28	1096.31
682.62	1084.84
682.96	1083.67
683.29	1082.50
683.63	1077.35
683.97	1074.54
684.31	1081.80
684.65	1075.01
684.99	1079.22
685.33	1083.20
685.67	1091.86
686.00	1089.75
686.34	1086.94
686.68	1081.09
687.02	1080.63
687.36	1081.80
687.70	1080.86
688.03	1086.24
688.37	1082.03
688.71	1082.73
689.05	1088.35
689.39	1084.37
689.72	1074.54
690.06	1081.33
690.40	1080.63
690.74	1064.71
691.08	1074.31
691.41	1077.35
691.75	1081.33
692.09	1077.82
692.43	1082.73
692.76	1077.58
693.10	1069.62
693.44	1074.31
693.78	1078.75
694.11	1078.75
694.45	1080.86
694.79	1100.52
695.13	1096.07
695.46	1090.22
695.80	1093.03
696.14	1095.84
696.48	1086.24
696.81	1087.41
697.15	1083.67
697.49	1093.03
697.82	1085.31
698.16	1088.58
698.50	1086.24
698.83	1096.54
699.17	1080.39
699.51	1086.48
699.84	1088.12
700.18	1078.28
700.52	1069.62
700.85	1073.14
701.19	1086.24
701.53	1089.29
701.86	1103.09
702.20	1107.78
702.54	1108.01
702.87	1088.12
703.21	1078.75
703.55	1084.37
703.88	1078.75
704.22	1081.09
704.55	1082.50
704.89	1086.24
705.23	1075.01
705.56	1077.35
705.90	1073.37
706.23	1072.67
706.57	1073.84
706.91	1073.14
707.24	1080.16
707.58	1083.20
707.91	1091.86
708.25	1090.22
708.58	1086.01
708.92	1085.07
709.26	1086.94
709.59	1076.88
709.93	1084.14
710.26	1087.88
710.60	1077.82
710.93	1076.18
711.27	1077.82
711.60	1064.48
711.94	1064.71
712.27	1073.84
712.61	1076.65
712.94	1087.18
713.28	1095.60
713.61	1089.05
713.95	1085.77
714.28	1075.94
714.62	1069.39
714.95	1057.92
715.29	1056.28
715.62	1055.35
715.96	1059.09
716.29	1066.11
716.63	1080.39
716.96	1093.50
717.29	1095.37
717.63	1096.54
717.96	1093.97
718.30	1086.24
718.63	1086.71
718.97	1085.54
719.30	1083.43
719.63	1086.24
719.97	1088.82
720.30	1083.20
720.64	1081.80
720.97	1088.35
721.30	1090.22
721.64	1088.82
721.97	1087.41
722.31	1094.90
722.64	1085.77
722.97	1077.35
723.31	1082.73
723.64	1092.56
723.97	1081.09
724.31	1081.33
724.64	1073.60
724.98	1064.24
725.31	1052.30
725.64	1061.43
725.98	1066.82
726.31	1072.43
726.64	1078.52
726.97	1085.77
727.31	1086.01
727.64	1083.90
727.97	1086.48
728.31	1077.82
728.64	1081.56
728.97	1086.71
729.31	1084.14
729.64	1086.48
729.97	1096.31
730.30	1079.46
730.64	1076.65
730.97	1073.84
731.30	1078.28
731.63	1078.05
731.97	1083.43
732.30	1070.33
732.63	1079.92
732.96	1068.45
733.30	1070.56
733.63	1079.46
733.96	1090.92
734.29	1086.94
734.63	1094.90
734.96	1086.71
735.29	1086.71
735.62	1082.50
735.95	1088.12
736.29	1092.09
736.62	1096.31
736.95	1092.56
737.28	1097.01
737.61	1093.26
737.94	1088.58
738.28	1083.90
738.61	1090.22
738.94	1081.56
739.27	1082.03
739.60	1085.07
739.93	1083.43
740.27	1064.94
740.60	1069.86
740.93	1076.18
741.26	1075.01
741.59	1074.77
741.92	1085.77
742.25	1088.35
742.58	1079.22
742.91	1072.67
743.25	1072.67
743.58	1081.80
743.91	1087.41
744.24	1083.90
744.57	1094.67
744.90	1097.71
745.23	1082.97
745.56	1073.84
745.89	1084.37
746.22	1076.18
746.55	1076.41
746.88	1082.97
747.21	1093.03
747.54	1085.54
747.87	1078.05
748.20	1072.43
748.53	1067.99
748.87	1056.75
749.20	1057.92
749.53	1066.11
749.86	1072.43
750.19	1080.86
750.52	1078.28
750.85	1082.97
751.18	1076.65
751.51	1080.86
751.84	1066.58
752.16	1073.60
752.49	1067.05
752.82	1074.31
753.15	1067.05
753.48	1080.63
753.81	1086.94
754.14	1090.92
754.47	1089.99
754.80	1097.24
755.13	1089.75
755.46	1079.92
755.79	1070.09
756.12	1069.39
756.45	1070.09
756.78	1068.92
757.11	1073.84
757.43	1091.86
757.76	1093.26
758.09	1094.43
758.42	1112.69
758.75	1115.50
759.08	1119.01
759.41	1115.27
759.74	1104.26
760.07	1085.31
760.39	1075.71
760.72	1063.54
761.05	1066.82
761.38	1072.43
761.71	1072.67
762.04	1072.90
762.36	1077.11
762.69	1068.22
763.02	1065.18
763.35	1071.03
763.68	1069.86
764.01	1069.62
764.33	1075.24
764.66	1075.94
764.99	1073.37
765.32	1071.50
765.65	1064.24
765.97	1072.43
766.30	1075.94
766.63	1081.56
766.96	1090.69
767.28	1093.50
767.61	1089.99
767.94	1086.01
768.27	1078.99
768.59	1072.20
768.92	1075.48
769.25	1080.63
769.58	1085.54
769.90	1099.82
770.23	1104.97
770.56	1107.31
770.89	1098.18
771.21	1099.35
771.54	1086.94
771.87	1083.67
772.19	1078.99
772.52	1089.52
772.85	1093.50
773.17	1098.88
773.50	1100.29
773.83	1096.54
774.15	1091.16
774.48	1086.48
774.81	1076.65
775.13	1079.22
775.46	1083.43
775.79	1086.24
776.11	1089.05
776.44	1086.48
776.77	1077.11
777.09	1070.33
777.42	1068.92
777.74	1056.99
778.07	1063.07
778.40	1070.80
778.72	1081.33
779.05	1068.92
779.37	1085.31
779.70	1084.37
780.03	1084.14
780.35	1082.73
780.68	1093.97
781.00	1083.43
781.33	1085.07
781.65	1085.07
781.98	1085.07
782.31	1074.77
782.63	1078.05
782.96	1081.80
783.28	1082.03
783.61	1075.94
783.93	1080.63
784.26	1081.09
784.58	1079.69
784.91	1082.50
785.23	1077.11
785.56	1071.73
785.88	1069.62
786.21	1073.14
786.53	1070.80
786.86	1077.11
787.18	1071.73
787.51	1077.58
787.83	1072.43
788.16	1070.80
788.48	1067.52
788.81	1086.48
789.13	1074.77
789.46	1074.07
789.78	1076.65
790.10	1084.60
790.43	1071.26
790.75	1078.05
791.08	1085.31
791.40	1072.43
791.73	1072.90
792.05	1076.41
792.37	1071.03
792.70	1065.65
793.02	1078.75
793.35	1084.37
793.67	1092.09
793.99	1105.90
794.32	1109.65
794.64	1102.63
794.96	1098.65
795.29	1098.65
795.61	1089.29
795.93	1093.03
796.26	1097.71
796.58	1096.78
796.91	1093.97
797.23	1098.88
797.55	1095.14
797.87	1096.54
798.20	1100.99
798.52	1092.09
798.84	1082.26
799.17	1070.80
799.49	1073.37
799.81	1065.88
800.14	1064.71
800.46	1070.80
800.78	1082.50
801.10	1080.63
801.43	1091.63
801.75	1096.31
802.07	1108.01
802.40	1105.44
802.72	1102.86
803.04	1093.03
803.36	1094.90
803.69	1072.67
804.01	1071.73
804.33	1074.07
804.65	1065.88
804.97	1062.14
805.30	1071.50
805.62	1070.56
805.94	1070.09
806.26	1080.39
806.58	1080.86
806.91	1081.80
807.23	1086.24
807.55	1082.73
807.87	1067.52
808.19	1078.75
808.52	1075.71
808.84	1069.39
809.16	1071.03
809.48	1081.56
809.80	1067.28
810.12	1070.56
810.44	1075.24
810.77	1077.35
811.09	1086.24
811.41	1091.16
811.73	1094.90
812.05	1092.33
812.37	1095.60
812.69	1087.88
813.01	1089.05
813.33	1078.05
813.66	1082.73
813.98	1075.94
814.30	1081.33
814.62	1087.65
814.94	1093.50
815.26	1085.54
815.58	1088.58
815.90	1075.01
816.22	1082.97
816.54	1088.82
816.86	1097.95
817.18	1095.37
817.50	1103.80
817.82	1093.50
818.14	1084.14
818.46	1077.11
818.78	1075.71
819.10	1074.31
819.42	1074.07
819.74	1071.50
820.06	1078.75
820.38	1087.18
820.70	1083.20
821.02	1074.07
821.34	1086.01
821.66	1073.14
821.98	1073.60
822.30	1067.28
822.62	1077.58
822.94	1062.37
823.26	1071.97
823.58	1069.39
823.90	1086.94
824.22	1083.20
824.54	1094.43
824.86	1084.60
825.18	1086.94
825.50	1081.56
825.81	1084.14
826.13	1082.03
826.45	1088.58
826.77	1078.05
827.09	1067.99
827.41	1060.26
827.73	1064.48
828.05	1070.09
828.36	1074.31
828.68	1077.11
829.00	1087.41
829.32	1081.09
829.64	1078.05
829.96	1080.86
830.28	1081.80
830.59	1081.80
830.91	1089.29
831.23	1090.92
831.55	1089.52
831.87	1083.67
832.19	1067.75
832.50	1071.73
832.82	1067.75
833.14	1061.20
833.46	1077.58
833.78	1081.09
834.09	1067.99
834.41	1071.26
834.73	1080.63
835.05	1072.43
835.36	1080.16
835.68	1088.12
836.00	1088.58
836.32	1084.60
836.63	1087.41
836.95	1080.16
837.27	1086.24
837.59	1086.94
837.90	1086.94
838.22	1089.99
838.54	1103.56
838.85	1098.65
839.17	1087.41
839.49	1087.41
839.80	1088.12
840.12	1087.41
840.44	1083.43
840.76	1090.46
841.07	1092.33
841.39	1090.22
841.71	1092.56
842.02	1087.18
842.34	1082.97
842.65	1088.35
842.97	1093.50
843.29	1089.29
843.60	1090.69
843.92	1093.50
844.24	1082.03
844.55	1076.65
844.87	1074.77
845.18	1076.88
845.50	1078.99
845.82	1089.29
846.13	1086.24
846.45	1082.50
846.76	1083.20
847.08	1080.63
847.40	1068.22
847.71	1072.67
848.03	1070.09
848.34	1070.56
848.66	1070.09
848.97	1088.12
849.29	1087.41
849.60	1088.35
849.92	1094.20
850.24	1096.31
850.55	1084.37
850.87	1077.35
851.18	1084.37
851.50	1080.39
851.81	1082.50
852.13	1076.18
852.44	1078.28
852.76	1074.31
853.07	1076.65
853.39	1076.65
853.70	1086.71
854.01	1082.26
854.33	1082.03
854.64	1077.35
854.96	1068.22
855.27	1060.73
855.59	1078.75
855.90	1076.41
856.22	1071.97
856.53	1086.94
856.84	1097.01
857.16	1085.07
857.47	1080.86
857.79	1089.05
858.10	1084.37
858.41	1077.58
858.73	1075.01
859.04	1086.24
859.36	1085.54
859.67	1081.09
859.98	1090.69
860.30	1095.37
860.61	1091.16
860.92	1095.84
861.24	1096.07
861.55	1084.14
861.87	1083.20
862.18	1090.22
862.49	1088.12
862.81	1092.09
863.12	1097.95
863.43	1095.60
863.74	1092.56
864.06	1092.80
864.37	1085.07
864.68	1086.24
865.00	1097.71
865.31	1106.37
865.62	1098.88
865.94	1107.07
866.25	1097.24
866.56	1088.58
866.87	1069.16
867.19	1071.50
867.50	1068.22
867.81	1066.35
868.12	1069.39
868.44	1075.71
868.75	1074.31
869.06	1075.48
869.37	1086.71
869.68	1078.05
870.00	1081.09
870.31	1074.07
870.62	1075.71
870.93	1071.97
871.24	1085.77
871.56	1079.46
871.87	1081.33
872.18	1078.52
872.49	1089.29
872.80	1086.94
873.12	1089.05
873.43	1097.01
873.74	1104.50
874.05	1092.09
874.36	1079.69
874.67	1085.54
874.98	1077.82
875.29	1075.24
875.61	1066.35
875.92	1071.73
876.23	1075.94
876.54	1087.65
876.85	1085.77
877.16	1098.41
877.47	1093.50
877.78	1078.75
878.09	1075.48
878.40	1065.41
878.72	1069.62
879.03	1071.03
879.34	1081.56
879.65	1078.52
879.96	1085.07
880.27	1077.82
880.58	1086.01
880.89	1086.48
881.20	1082.97
881.51	1087.88
881.82	1088.58
882.13	1085.07
882.44	1083.90
882.75	1089.05
883.06	1082.73
883.37	1080.86
883.68	1073.84
883.99	1071.97
884.30	1065.88
884.61	1066.82
884.92	1071.73
885.23	1079.22
885.54	1077.11
885.85	1085.31
886.16	1083.90
886.47	1074.54
886.78	1066.11
887.08	1070.56
887.39	1068.69
887.70	1072.67
888.01	1070.80
888.32	1083.90
888.63	1074.31
888.94	1078.99
889.25	1076.41
889.56	1086.94
889.87	1089.29
890.17	1100.05
890.48	1087.41
890.79	1083.90
891.10	1083.43
891.41	1076.88
891.72	1069.86
892.03	1082.50
892.34	1087.88
892.64	1088.35
892.95	1089.52
893.26	1089.99
893.57	1074.77
893.88	1070.09
894.18	1067.05
894.49	1064.48
894.80	1058.62
895.11	1059.56
895.42	1065.41
895.72	1067.52
896.03	1068.45
896.34	1076.65
896.65	1080.86
896.96	1082.97
897.26	1086.24
897.57	1087.65
897.88	1084.84
898.19	1082.03
898.49	1080.39
898.80	1077.35
899.11	1067.28
899.41	1066.58
899.72	1080.16
900.03	1075.71
900.34	1070.33
900.64	1071.97
900.95	1075.48
901.26	1070.80
901.56	1075.24
901.87	1086.01
902.18	1090.69
902.48	1093.73
902.79	1093.73
903.10	1094.67
903.40	1084.14
903.71	1079.22
904.02	1080.39
904.32	1082.50
904.63	1080.63
904.94	1080.86
905.24	1087.88
905.55	1086.71
905.85	1083.90
906.16	1081.80
906.47	1083.20
906.77	1081.09
907.08	1083.67
907.38	1080.39
907.69	1076.18
908.00	1083.90
908.30	1081.80
908.61	1081.56
908.91	1086.24
909.22	1100.75
909.52	1096.07
909.83	1095.84
910.14	1090.22
910.44	1087.41
910.75	1073.60
911.05	1070.09
911.36	1072.20
911.66	1065.88
911.97	1061.90
912.27	1064.48
912.58	1055.58
912.88	1058.39
913.19	1064.01
913.49	1061.90
913.80	1065.65
914.10	1075.94
914.41	1066.58
914.71	1064.01
915.01	1077.11
915.32	1077.35
915.62	1085.54
915.93	1095.60
916.23	1093.03
916.54	1085.77
916.84	1083.20
917.15	1071.26
917.45	1065.18
917.75	1072.20
918.06	1072.67
918.36	1066.35
918.67	1066.82
918.97	1075.94
919.27	1082.03
919.58	1082.50
919.88	1089.99
920.18	1089.29
920.49	1082.97
920.79	1069.86
921.10	1068.69
921.40	1072.90
921.70	1076.65
922.01	1071.97
922.31	1083.90
922.61	1086.01
922.92	1084.37
923.22	1082.03
923.52	1077.58
923.82	1067.52
924.13	1068.45
924.43	1056.05
924.73	1068.69
925.04	1079.69
925.34	1074.31
925.64	1060.50
925.94	1069.39
926.25	1066.58
926.55	1068.22
926.85	1075.48
927.15	1080.16
927.46	1080.86
927.76	1082.73
928.06	1081.09
928.36	1090.69
928.67	1100.05
928.97	1106.84
929.27	1098.65
929.57	1104.03
929.87	1094.67
930.18	1094.43
930.48	1086.48
930.78	1085.07
931.08	1070.33
931.38	1074.54
931.69	1073.84
931.99	1077.82
932.29	1081.56
932.59	1089.29
932.89	1096.31
933.19	1097.24
933.49	1093.26
933.80	1094.20
934.10	1102.39
934.40	1093.97
934.70	1089.52
935.00	1092.56
935.30	1086.24
935.60	1072.43
935.90	1073.84
936.20	1072.43
936.50	1068.92
936.81	1078.05
937.11	1082.97
937.41	1072.90
937.71	1073.14
938.01	1071.97
938.31	1058.62
938.61	1064.48
938.91	1073.60
939.21	1069.62
939.51	1068.45
939.81	1075.24
940.11	1066.11
940.41	1067.75
940.71	1068.45
941.01	1074.77
941.31	1072.67
941.61	1075.94
941.91	1075.24
942.21	1075.71
942.51	1070.33
942.81	1074.31
943.11	1071.03
943.41	1066.58
943.71	1072.20
944.01	1075.71
944.31	1073.84
944.61	1075.94
944.90	1076.18
945.20	1078.28
945.50	1083.20
945.80	1080.63
946.10	1083.67
946.40	1084.60
946.70	1071.26
947.00	1067.52
947.30	1068.92
947.60	1067.28
947.89	1072.43
948.19	1095.14
948.49	1102.16
948.79	1105.67
949.09	1094.90
949.39	1087.65
949.69	1077.11
949.98	1061.90
950.28	1059.09
950.58	1062.37
950.88	1067.99
951.18	1067.05
951.48	1074.31
951.77	1073.14
952.07	1081.56
952.37	1079.69
952.67	1078.52
952.97	1075.24
953.26	1085.07
953.56	1086.24
953.86	1083.20
954.16	1082.03
954.45	1095.60
954.75	1094.20
955.05	1095.37
955.35	1090.92
955.64	1089.05
955.94	1082.97
956.24	1068.92
956.54	1064.71
956.83	1078.75
957.13	1082.50
957.43	1073.84
957.72	1082.97
958.02	1089.05
958.32	1092.09
958.61	1097.71
958.91	1092.56
959.21	1094.90
959.50	1088.82
959.80	1078.75
960.10	1079.92
960.39	1091.39
960.69	1083.90
960.99	1088.12
961.28	1083.20
961.58	1065.41
961.87	1062.84
962.17	1071.73
962.47	1065.88
962.76	1071.97
963.06	1081.56
963.36	1077.82
963.65	1072.67
963.95	1078.75
964.24	1061.20
964.54	1057.92
964.83	1057.45
965.13	1052.30
965.42	1047.16
965.72	1056.28
966.02	1058.62
966.31	1065.88
966.61	1068.69
966.90	1064.24
967.20	1070.09
967.49	1078.28
967.79	1074.54
968.08	1083.43
968.38	1082.03
968.67	1079.92
968.97	1079.92
969.26	1076.88
969.56	1069.62
969.85	1085.31
970.15	1087.88
970.44	1086.48
970.74	1095.84
971.03	1093.03
971.32	1080.86
971.62	1081.09
971.91	1071.03
972.21	1071.50
972.50	1074.31
972.80	1076.41
973.09	1081.80
973.38	1089.52
973.68	1076.88
973.97	1072.90
974.27	1073.37
974.56	1059.09
974.85	1063.77
975.15	1071.97
975.44	1080.39
975.73	1078.52
976.03	1085.54
976.32	1078.52
976.61	1075.01
976.91	1067.75
977.20	1070.56
977.49	1072.90
977.79	1069.16
978.08	1072.90
978.37	1079.22
978.67	1082.97
978.96	1083.90
979.25	1086.48
979.55	1082.73
979.84	1082.73
980.13	1087.65
980.42	1093.26
980.72	1091.16
981.01	1094.43
981.30	1097.24
981.59	1095.84
981.89	1096.07
982.18	1096.31
982.47	1087.41
982.76	1077.11
983.06	1076.41
983.35	1073.84
983.64	1079.22
983.93	1087.65
984.22	1100.05
984.52	1099.12
984.81	1093.97
985.10	1092.56
985.39	1089.29
985.68	1084.84
985.97	1081.09
986.27	1084.37
986.56	1082.03
986.85	1080.16
987.14	1079.69
987.43	1076.41
987.72	1074.07
988.01	1085.54
988.31	1092.09
988.60	1092.80
988.89	1089.29
989.18	1083.67
989.47	1072.20
989.76	1075.24
990.05	1063.07
990.34	1063.77
990.63	1074.77
990.92	1087.41
991.21	1094.67
991.51	1091.86
991.80	1084.37
992.09	1081.56
992.38	1066.58
992.67	1045.05
992.96	1052.07
993.25	1065.41
993.54	1065.41
993.83	1069.86
994.12	1071.97
994.41	1076.41
994.70	1072.90
994.99	1074.31
995.28	1082.03
995.57	1092.33
995.86	1097.95
996.15	1108.01
996.44	1105.20
996.73	1096.78
997.02	1095.84
997.31	1087.41
997.59	1082.73
997.88	1081.33
998.17	1082.97
998.46	1078.99
998.75	1091.16
999.04	1089.52
999.33	1090.92
999.62	1082.26
999.91	1078.52
1000.20	1076.18
1000.49	1074.07
1000.77	1077.82
1001.06	1086.48
1001.35	1089.05
1001.64	1080.86
1001.93	1078.28
1002.22	1075.01
1002.51	1078.28
1002.79	1078.05
1003.08	1077.35
1003.37	1073.37
1003.66	1068.92
1003.95	1066.11
1004.23	1064.71
1004.52	1071.50
1004.81	1076.65
1005.10	1071.50
1005.39	1063.77
1005.67	1066.35
1005.96	1056.05
1006.25	1065.41
1006.54	1059.33
1006.83	1062.14
1007.11	1065.88
1007.40	1066.11
1007.69	1050.20
1007.97	1064.94
1008.26	1062.84
1008.55	1061.90
1008.84	1074.07
1009.12	1088.35
1009.41	1081.80
1009.70	1089.52
1009.98	1077.82
1010.27	1068.22
1010.56	1053.01
1010.85	1056.99
1011.13	1065.65
1011.42	1079.69
1011.71	1081.09
1011.99	1082.03
1012.28	1081.80
1012.56	1075.48
1012.85	1078.28
1013.14	1082.50
1013.42	1095.84
1013.71	1103.56
1014.00	1101.22
1014.28	1096.78
1014.57	1097.01
1014.85	1094.20
1015.14	1083.20
1015.43	1076.18
1015.71	1082.50
1016.00	1085.54
1016.28	1090.22
1016.57	1093.03
1016.85	1096.78
1017.14	1091.39
1017.43	1084.14
1017.71	1081.80
1018.00	1079.69
1018.28	1081.33
1018.57	1089.75
1018.85	1082.50
1019.14	1082.97
1019.42	1080.39
1019.71	1082.03
1019.99	1074.77
1020.28	1080.39
1020.56	1077.11
1020.85	1089.75
1021.13	1089.52
1021.42	1079.22
1021.70	1074.07
1021.99	1073.37
1022.27	1063.77
1022.55	1078.99
1022.84	1063.77
>>>>>End Processed Spectral Data<<<<<
