SpectraSuite Data File
++++++++++++++++++++++++++++++++++++
Date: Mon Aug 26 10:26:00 PDT 2019
User: corrico
Dark Spectrum Present: No
Reference Spectrum Present: No
Number of Sampled Component Spectra: 1
Spectrometers: USB2+H06089
Integration Time (usec): 10000 (USB2+H06089)
Spectra Averaged: 2 (USB2+H06089)
Boxcar Smoothing: 2 (USB2+H06089)
Correct for Electrical Dark: No (USB2+H06089)
Strobe/Lamp Enabled: No (USB2+H06089)
Correct for Detector Non-linearity: No (USB2+H06089)
Correct for Stray Light: No (USB2+H06089)
Number of Pixels in Processed Spectrum: 2048
>>>>>Begin Processed Spectral Data<<<<<
339.70	1045.05
340.07	1045.05
340.45	1017.20
340.82	989.81
341.19	962.90
341.57	934.81
341.94	915.15
342.31	889.64
342.69	879.81
343.06	873.72
343.43	882.62
343.81	890.81
344.18	910.23
344.55	923.11
344.93	940.19
345.30	935.75
345.67	939.49
346.04	950.49
346.42	955.64
346.79	963.36
347.16	971.56
347.54	978.11
347.91	974.83
348.28	991.22
348.65	991.92
349.03	1005.96
349.40	1015.56
349.77	1031.24
350.14	1030.07
350.52	1030.54
350.89	1024.92
351.26	1031.71
351.63	1035.22
352.01	1032.64
352.38	1033.81
352.75	1039.20
353.12	1050.67
353.50	1052.07
353.87	1062.60
354.24	1082.50
354.61	1093.73
354.98	1087.18
355.36	1085.77
355.73	1087.65
356.10	1084.14
356.47	1081.56
356.84	1087.88
357.22	1089.99
357.59	1091.39
357.96	1086.71
358.33	1087.18
358.70	1076.88
359.08	1062.84
359.45	1065.65
359.82	1064.71
360.19	1065.41
360.56	1064.71
360.94	1078.99
361.31	1076.41
361.68	1078.99
362.05	1077.35
362.42	1079.69
362.79	1079.92
363.16	1071.97
363.54	1078.52
363.91	1078.28
364.28	1076.41
364.65	1083.43
365.02	1086.94
365.39	1081.09
365.76	1080.86
366.14	1070.80
366.51	1065.88
366.88	1070.09
367.25	1064.24
367.62	1066.82
367.99	1077.35
368.36	1074.07
368.73	1070.33
369.10	1072.90
369.48	1078.99
369.85	1085.77
370.22	1082.50
370.59	1079.92
370.96	1073.60
371.33	1064.01
371.70	1059.09
372.07	1061.67
372.44	1066.58
372.81	1072.67
373.18	1065.18
373.55	1063.54
373.93	1069.16
374.30	1066.82
374.67	1064.71
375.04	1066.35
375.41	1061.67
375.78	1061.43
376.15	1065.65
376.52	1066.35
376.89	1070.80
377.26	1078.28
377.63	1066.58
378.00	1051.13
378.37	1056.52
378.74	1058.16
379.11	1054.88
379.48	1054.65
379.85	1061.67
380.22	1052.77
380.59	1046.22
380.96	1051.60
381.33	1065.41
381.70	1069.39
382.07	1080.39
382.44	1077.11
382.81	1069.16
383.18	1064.71
383.55	1068.69
383.92	1066.35
384.29	1076.41
384.66	1081.80
385.03	1088.12
385.40	1091.86
385.77	1099.35
386.14	1102.63
386.51	1093.26
386.88	1086.01
387.25	1081.80
387.62	1066.11
387.99	1058.39
388.36	1067.05
388.73	1067.28
389.10	1071.03
389.46	1072.20
389.83	1083.20
390.20	1086.24
390.57	1086.01
390.94	1084.14
391.31	1093.03
391.68	1089.05
392.05	1082.73
392.42	1083.20
392.79	1079.22
393.16	1079.22
393.53	1074.54
393.89	1081.09
394.26	1078.28
394.63	1081.09
395.00	1075.71
395.37	1073.84
395.74	1068.69
396.11	1065.65
396.48	1063.31
396.84	1060.03
397.21	1061.67
397.58	1070.33
397.95	1071.73
398.32	1082.03
398.69	1089.52
399.06	1093.03
399.42	1086.71
399.79	1083.90
400.16	1070.80
400.53	1071.50
400.90	1071.73
401.27	1067.75
401.64	1060.73
402.00	1070.09
402.37	1062.14
402.74	1062.14
403.11	1061.90
403.48	1080.63
403.84	1086.48
404.21	1089.29
404.58	1087.88
404.95	1091.86
405.32	1084.14
405.68	1066.58
406.05	1065.41
406.42	1071.50
406.79	1076.18
407.16	1075.24
407.52	1074.31
407.89	1083.43
408.26	1078.05
408.63	1075.94
408.99	1065.18
409.36	1070.56
409.73	1064.24
410.10	1066.11
410.47	1051.37
410.83	1066.11
411.20	1071.97
411.57	1071.26
411.94	1065.18
412.30	1085.07
412.67	1078.99
413.04	1075.71
413.40	1075.01
413.77	1081.09
414.14	1068.22
414.51	1070.09
414.87	1071.97
415.24	1081.33
415.61	1083.67
415.97	1086.71
416.34	1092.80
416.71	1093.03
417.08	1088.82
417.44	1087.18
417.81	1089.29
418.18	1078.52
418.54	1070.56
418.91	1058.16
419.28	1057.69
419.64	1066.82
420.01	1067.28
420.38	1076.88
420.74	1094.43
421.11	1098.88
421.48	1087.88
421.84	1085.31
422.21	1082.50
422.58	1069.39
422.94	1058.39
423.31	1065.88
423.68	1077.82
424.04	1078.05
424.41	1078.52
424.77	1072.90
425.14	1065.41
425.51	1056.05
425.87	1056.99
426.24	1060.73
426.61	1068.69
426.97	1061.90
427.34	1071.03
427.70	1063.54
428.07	1063.54
428.44	1064.24
428.80	1076.41
429.17	1084.60
429.53	1094.90
429.90	1091.16
430.27	1100.05
430.63	1096.78
431.00	1080.86
431.36	1075.48
431.73	1078.75
432.09	1070.33
432.46	1074.07
432.83	1088.58
433.19	1083.90
433.56	1086.71
433.92	1089.52
434.29	1081.80
434.65	1071.73
435.02	1071.97
435.38	1074.54
435.75	1073.14
436.11	1079.92
436.48	1080.86
436.84	1085.77
437.21	1083.20
437.57	1077.35
437.94	1074.07
438.30	1084.84
438.67	1085.54
439.03	1083.67
439.40	1091.16
439.76	1091.86
440.13	1093.03
440.49	1086.48
440.86	1086.48
441.22	1078.75
441.59	1082.73
441.95	1072.20
442.32	1070.56
442.68	1076.65
443.05	1088.35
443.41	1082.26
443.78	1080.16
444.14	1073.60
444.51	1067.75
444.87	1065.88
445.24	1066.11
445.60	1068.92
445.96	1078.99
446.33	1085.77
446.69	1079.46
447.06	1077.35
447.42	1073.14
447.79	1075.48
448.15	1071.50
448.51	1056.99
448.88	1064.01
449.24	1064.94
449.61	1066.58
449.97	1066.35
450.33	1072.43
450.70	1062.84
451.06	1070.33
451.43	1064.71
451.79	1055.82
452.15	1071.50
452.52	1071.97
452.88	1064.48
453.24	1071.97
453.61	1080.39
453.97	1076.65
454.34	1077.35
454.70	1080.63
455.06	1084.37
455.43	1085.54
455.79	1086.24
456.15	1087.41
456.52	1082.97
456.88	1077.11
457.24	1080.63
457.61	1078.99
457.97	1084.84
458.33	1091.63
458.70	1092.56
459.06	1089.99
459.42	1097.95
459.79	1089.52
460.15	1081.56
460.51	1086.01
460.88	1080.16
461.24	1071.03
461.60	1073.37
461.96	1083.20
462.33	1080.39
462.69	1081.80
463.05	1073.14
463.42	1071.73
463.78	1069.86
464.14	1060.96
464.50	1062.60
464.87	1067.28
465.23	1077.35
465.59	1082.50
465.95	1088.12
466.32	1076.41
466.68	1079.69
467.04	1073.84
467.40	1059.56
467.77	1070.33
468.13	1062.84
468.49	1069.39
468.85	1067.99
469.22	1076.88
469.58	1063.07
469.94	1081.56
470.30	1083.20
470.66	1081.09
471.03	1076.65
471.39	1081.56
471.75	1075.71
472.11	1071.03
472.47	1080.86
472.84	1088.82
473.20	1086.01
473.56	1090.46
473.92	1081.80
474.28	1071.50
474.65	1067.05
475.01	1068.22
475.37	1065.65
475.73	1063.77
476.09	1066.58
476.45	1063.54
476.81	1064.01
477.18	1074.07
477.54	1079.22
477.90	1085.54
478.26	1092.80
478.62	1093.50
478.98	1087.18
479.34	1089.52
479.71	1078.75
480.07	1072.20
480.43	1068.22
480.79	1062.37
481.15	1061.20
481.51	1067.75
481.87	1060.96
482.23	1053.94
482.59	1056.52
482.96	1063.31
483.32	1057.45
483.68	1067.05
484.04	1082.26
484.40	1079.92
484.76	1076.65
485.12	1089.52
485.48	1096.07
485.84	1092.33
486.20	1094.90
486.56	1093.26
486.92	1089.29
487.28	1077.58
487.64	1075.48
488.00	1081.80
488.37	1085.77
488.73	1075.01
489.09	1080.39
489.45	1086.94
489.81	1076.65
490.17	1072.90
490.53	1080.39
490.89	1069.62
491.25	1064.01
491.61	1069.86
491.97	1062.37
492.33	1058.39
492.69	1069.62
493.05	1065.41
493.41	1062.14
493.77	1082.73
494.13	1082.73
494.49	1083.20
494.85	1087.65
495.21	1100.99
495.57	1088.82
495.93	1085.31
496.29	1094.43
496.64	1096.31
497.00	1089.05
497.36	1084.37
497.72	1092.56
498.08	1075.94
498.44	1068.69
498.80	1072.67
499.16	1079.46
499.52	1074.31
499.88	1079.22
500.24	1089.29
500.60	1083.20
500.96	1088.35
501.32	1093.26
501.68	1097.01
502.03	1091.16
502.39	1097.01
502.75	1095.84
503.11	1095.84
503.47	1096.07
503.83	1095.60
504.19	1083.67
504.55	1076.18
504.91	1070.80
505.26	1071.26
505.62	1072.20
505.98	1075.48
506.34	1083.20
506.70	1082.50
507.06	1067.99
507.42	1071.03
507.78	1072.43
508.13	1071.50
508.49	1073.37
508.85	1088.58
509.21	1090.92
509.57	1088.82
509.93	1085.77
510.28	1091.63
510.64	1082.73
511.00	1088.12
511.36	1089.52
511.72	1086.48
512.07	1083.43
512.43	1089.29
512.79	1077.82
513.15	1077.58
513.51	1083.43
513.86	1091.86
514.22	1085.31
514.58	1094.43
514.94	1105.20
515.30	1109.18
515.65	1105.67
516.01	1111.75
516.37	1099.58
516.73	1089.52
517.08	1080.39
517.44	1070.80
517.80	1073.60
518.16	1080.63
518.51	1082.26
518.87	1083.67
519.23	1094.20
519.59	1079.69
519.94	1077.35
520.30	1084.84
520.66	1096.78
521.01	1089.75
521.37	1105.67
521.73	1106.14
522.09	1098.88
522.44	1092.80
522.80	1102.63
523.16	1100.29
523.51	1100.99
523.87	1090.22
524.23	1093.97
524.58	1088.58
524.94	1092.33
525.30	1091.16
525.65	1106.61
526.01	1099.58
526.37	1088.12
526.72	1086.48
527.08	1094.43
527.44	1091.86
527.79	1088.82
528.15	1104.26
528.51	1092.80
528.86	1078.28
529.22	1082.26
529.58	1086.94
529.93	1094.90
530.29	1101.92
530.65	1104.50
531.00	1094.67
531.36	1093.73
531.71	1076.41
532.07	1079.69
532.43	1087.41
532.78	1092.80
533.14	1098.18
533.49	1097.24
533.85	1097.95
534.21	1095.84
534.56	1097.71
534.92	1084.84
535.27	1082.03
535.63	1075.71
535.98	1076.88
536.34	1072.67
536.69	1076.18
537.05	1080.39
537.41	1087.18
537.76	1085.54
538.12	1089.29
538.47	1090.46
538.83	1099.35
539.18	1092.33
539.54	1096.78
539.89	1094.43
540.25	1095.60
540.60	1085.77
540.96	1090.92
541.31	1091.63
541.67	1094.67
542.02	1092.33
542.38	1099.58
542.73	1096.31
543.09	1091.63
543.44	1093.03
543.80	1096.78
544.15	1095.14
544.51	1095.14
544.86	1098.88
545.22	1096.31
545.57	1094.90
545.93	1103.33
546.28	1099.35
546.64	1103.56
546.99	1103.56
547.35	1109.88
547.70	1101.92
548.05	1101.92
548.41	1091.86
548.76	1081.33
549.12	1079.46
549.47	1074.54
549.83	1073.84
550.18	1070.09
550.53	1086.24
550.89	1078.99
551.24	1082.26
551.60	1090.69
551.95	1097.48
552.30	1098.65
552.66	1097.95
553.01	1095.14
553.37	1091.63
553.72	1092.80
554.07	1082.97
554.43	1083.43
554.78	1095.60
555.13	1096.07
555.49	1092.80
555.84	1093.26
556.19	1100.05
556.55	1094.90
556.90	1088.82
557.26	1085.54
557.61	1080.63
557.96	1079.46
558.32	1080.39
558.67	1082.97
559.02	1082.26
559.37	1086.94
559.73	1076.88
560.08	1071.73
560.43	1075.24
560.79	1085.07
561.14	1087.41
561.49	1093.03
561.85	1088.82
562.20	1083.20
562.55	1081.33
562.90	1077.11
563.26	1072.67
563.61	1083.20
563.96	1089.29
564.32	1088.82
564.67	1091.16
565.02	1094.90
565.37	1086.71
565.73	1083.43
566.08	1087.88
566.43	1086.48
566.78	1081.09
567.14	1077.58
567.49	1083.43
567.84	1081.33
568.19	1088.82
568.54	1089.29
568.90	1098.65
569.25	1093.50
569.60	1076.41
569.95	1072.67
570.31	1080.39
570.66	1078.05
571.01	1082.73
571.36	1087.65
571.71	1079.69
572.06	1082.73
572.42	1072.90
572.77	1064.71
573.12	1075.71
573.47	1083.43
573.82	1080.16
574.18	1087.41
574.53	1084.60
574.88	1081.09
575.23	1079.22
575.58	1074.54
575.93	1074.54
576.28	1077.58
576.64	1071.03
576.99	1062.14
577.34	1061.67
577.69	1066.11
578.04	1075.24
578.39	1087.88
578.74	1096.54
579.09	1104.26
579.44	1099.58
579.80	1095.60
580.15	1084.37
580.50	1082.73
580.85	1080.86
581.20	1073.37
581.55	1075.71
581.90	1076.18
582.25	1085.31
582.60	1085.54
582.95	1094.90
583.30	1093.50
583.65	1087.18
584.00	1073.60
584.35	1073.37
584.71	1068.45
585.06	1075.24
585.41	1085.54
585.76	1089.29
586.11	1085.54
586.46	1095.37
586.81	1082.97
587.16	1082.03
587.51	1091.63
587.86	1097.71
588.21	1092.56
588.56	1101.22
588.91	1097.95
589.26	1091.86
589.61	1085.77
589.96	1085.54
590.31	1082.97
590.66	1093.26
591.01	1094.43
591.36	1095.60
591.71	1099.82
592.06	1098.65
592.41	1096.78
592.76	1096.31
593.10	1102.86
593.45	1097.48
593.80	1095.14
594.15	1093.26
594.50	1095.60
594.85	1090.22
595.20	1088.12
595.55	1096.78
595.90	1086.94
596.25	1083.20
596.60	1072.43
596.95	1074.77
597.30	1061.90
597.64	1119.24
597.99	1128.14
598.34	1141.48
598.69	1141.01
599.04	1153.65
599.39	1116.44
599.74	1116.67
600.09	1119.95
600.44	1122.29
600.78	1112.46
601.13	1102.16
601.48	1089.75
601.83	1075.48
602.18	1071.73
602.53	1078.99
602.88	1075.48
603.22	1078.75
603.57	1081.56
603.92	1082.50
604.27	1084.84
604.62	1089.52
604.97	1084.37
605.31	1080.86
605.66	1080.86
606.01	1078.99
606.36	1069.39
606.71	1066.58
607.05	1062.84
607.40	1067.05
607.75	1057.92
608.10	1070.09
608.44	1081.33
608.79	1098.65
609.14	1104.26
609.49	1099.35
609.84	1098.41
610.18	1093.03
610.53	1091.39
610.88	1096.54
611.23	1105.90
611.57	1102.39
611.92	1111.75
612.27	1115.27
612.62	1093.97
612.96	1092.80
613.31	1095.84
613.66	1087.41
614.00	1088.12
614.35	1092.33
614.70	1100.99
615.05	1097.24
615.39	1097.01
615.74	1099.35
616.09	1103.33
616.43	1097.01
616.78	1109.41
617.13	1112.92
617.47	1099.82
617.82	1104.03
618.17	1100.75
618.51	1090.46
618.86	1082.50
619.21	1093.73
619.55	1093.97
619.90	1097.01
620.25	1090.46
620.59	1097.48
620.94	1078.05
621.29	1076.18
621.63	1080.39
621.98	1085.77
622.32	1081.33
622.67	1082.97
623.02	1085.31
623.36	1079.92
623.71	1082.03
624.05	1079.92
624.40	1089.52
624.75	1094.67
625.09	1088.82
625.44	1085.54
625.78	1086.71
626.13	1093.03
626.48	1076.65
626.82	1086.48
627.17	1077.35
627.51	1082.26
627.86	1080.16
628.20	1084.37
628.55	1081.56
628.89	1088.58
629.24	1085.07
629.58	1087.18
629.93	1095.37
630.28	1092.80
630.62	1090.69
630.97	1085.77
631.31	1081.56
631.66	1070.56
632.00	1068.45
632.35	1065.65
632.69	1075.48
633.04	1066.35
633.38	1074.77
633.73	1072.43
634.07	1080.63
634.42	1077.82
634.76	1082.26
635.11	1074.77
635.45	1075.71
635.79	1076.65
636.14	1075.48
636.48	1077.58
636.83	1083.20
637.17	1084.60
637.52	1085.07
637.86	1079.46
638.21	1081.56
638.55	1078.99
638.89	1089.99
639.24	1092.09
639.58	1101.46
639.93	1095.14
640.27	1097.71
640.61	1092.09
640.96	1091.16
641.30	1078.75
641.65	1084.84
641.99	1076.18
642.33	1074.07
642.68	1067.05
643.02	1075.48
643.37	1065.41
643.71	1070.09
644.05	1067.52
644.40	1071.97
644.74	1067.99
645.08	1076.41
645.43	1075.71
645.77	1074.31
646.11	1061.90
646.46	1067.52
646.80	1072.90
647.14	1065.65
647.49	1070.09
647.83	1073.84
648.17	1058.86
648.52	1046.45
648.86	1060.50
649.20	1064.24
649.55	1060.96
649.89	1076.65
650.23	1089.05
650.57	1082.26
650.92	1076.18
651.26	1082.97
651.60	1080.39
651.95	1073.37
652.29	1082.26
652.63	1087.18
652.97	1077.35
653.32	1082.26
653.66	1081.33
654.00	1073.84
654.34	1081.09
654.69	1097.24
655.03	1100.75
655.37	1100.75
655.71	1096.07
656.05	1083.67
656.40	1090.22
656.74	1084.60
657.08	1086.94
657.42	1084.84
657.76	1093.26
658.11	1088.82
658.45	1082.97
658.79	1080.86
659.13	1088.12
659.47	1081.33
659.82	1080.86
660.16	1077.82
660.50	1077.82
660.84	1083.90
661.18	1075.48
661.52	1068.92
661.87	1078.28
662.21	1068.69
662.55	1053.94
662.89	1057.92
663.23	1061.90
663.57	1060.96
663.91	1075.48
664.25	1085.54
664.60	1085.54
664.94	1074.31
665.28	1071.73
665.62	1066.58
665.96	1061.20
666.30	1068.22
666.64	1078.28
666.98	1075.94
667.32	1083.20
667.66	1086.48
668.01	1082.73
668.35	1078.99
668.69	1086.48
669.03	1085.54
669.37	1088.12
669.71	1083.43
670.05	1097.24
670.39	1098.65
670.73	1096.78
671.07	1090.46
671.41	1092.80
671.75	1076.18
672.09	1074.77
672.43	1074.07
672.77	1082.03
673.11	1079.46
673.45	1078.28
673.79	1069.86
674.13	1071.50
674.47	1054.41
674.81	1064.01
675.15	1068.22
675.49	1072.90
675.83	1070.56
676.17	1079.92
676.51	1083.90
676.85	1080.39
677.19	1079.22
677.53	1079.22
677.87	1086.71
678.21	1085.77
678.55	1089.99
678.89	1089.52
679.23	1090.69
679.57	1089.05
679.90	1081.09
680.24	1079.22
680.58	1089.75
680.92	1086.94
681.26	1084.37
681.60	1088.35
681.94	1093.50
682.28	1092.56
682.62	1094.43
682.96	1093.26
683.29	1092.09
683.63	1095.14
683.97	1086.71
684.31	1092.80
684.65	1093.03
684.99	1092.80
685.33	1089.75
685.67	1091.63
686.00	1086.94
686.34	1082.97
686.68	1087.18
687.02	1086.94
687.36	1082.97
687.70	1077.35
688.03	1084.84
688.37	1079.46
688.71	1076.18
689.05	1082.03
689.39	1084.14
689.72	1077.82
690.06	1077.35
690.40	1065.65
690.74	1059.79
691.08	1066.82
691.41	1071.03
691.75	1067.05
692.09	1081.33
692.43	1079.22
692.76	1077.35
693.10	1081.80
693.44	1084.37
693.78	1081.80
694.11	1088.82
694.45	1077.11
694.79	1080.16
695.13	1089.52
695.46	1076.18
695.80	1069.62
696.14	1078.05
696.48	1065.65
696.81	1069.86
697.15	1084.84
697.49	1092.80
697.82	1090.92
698.16	1095.37
698.50	1081.80
698.83	1090.46
699.17	1094.20
699.51	1093.50
699.84	1093.03
700.18	1090.46
700.52	1082.26
700.85	1075.71
701.19	1071.03
701.53	1070.56
701.86	1072.20
702.20	1071.73
702.54	1069.86
702.87	1079.22
703.21	1085.31
703.55	1085.07
703.88	1078.99
704.22	1081.33
704.55	1068.22
704.89	1050.67
705.23	1052.07
705.56	1059.56
705.90	1062.14
706.23	1077.11
706.57	1086.24
706.91	1079.22
707.24	1076.18
707.58	1073.37
707.91	1065.65
708.25	1060.26
708.58	1068.22
708.92	1067.28
709.26	1068.45
709.59	1066.58
709.93	1079.22
710.26	1079.69
710.60	1079.46
710.93	1079.46
711.27	1088.58
711.60	1082.03
711.94	1087.18
712.27	1088.12
712.61	1081.56
712.94	1084.37
713.28	1089.29
713.61	1085.54
713.95	1082.03
714.28	1085.07
714.62	1085.07
714.95	1085.77
715.29	1085.54
715.62	1096.07
715.96	1095.84
716.29	1080.86
716.63	1077.82
716.96	1083.67
717.29	1080.63
717.63	1082.50
717.96	1093.97
718.30	1092.80
718.63	1087.18
718.97	1085.07
719.30	1091.16
719.63	1084.60
719.97	1088.82
720.30	1087.65
720.64	1094.43
720.97	1096.07
721.30	1102.86
721.64	1098.65
721.97	1093.97
722.31	1082.73
722.64	1078.99
722.97	1070.80
723.31	1073.14
723.64	1068.45
723.97	1070.09
724.31	1056.52
724.64	1060.50
724.98	1066.82
725.31	1077.11
725.64	1075.94
725.98	1088.82
726.31	1095.37
726.64	1097.48
726.97	1101.69
727.31	1103.09
727.64	1093.73
727.97	1085.77
728.31	1069.86
728.64	1059.79
728.97	1058.62
729.31	1065.88
729.64	1070.56
729.97	1079.69
730.30	1094.90
730.64	1089.29
730.97	1081.09
731.30	1074.31
731.63	1076.41
731.97	1066.11
732.30	1072.20
732.63	1081.80
732.96	1093.50
733.30	1096.54
733.63	1098.88
733.96	1097.01
734.29	1086.71
734.63	1070.80
734.96	1067.52
735.29	1067.99
735.62	1075.48
735.95	1082.73
736.29	1087.41
736.62	1079.22
736.95	1074.07
737.28	1068.22
737.61	1065.41
737.94	1066.58
738.28	1072.20
738.61	1086.24
738.94	1090.92
739.27	1095.84
739.60	1107.31
739.93	1100.05
740.27	1084.37
740.60	1076.88
740.93	1082.97
741.26	1075.24
741.59	1082.50
741.92	1089.75
742.25	1095.14
742.58	1091.16
742.91	1085.77
743.25	1090.22
743.58	1089.05
743.91	1087.18
744.24	1079.46
744.57	1078.52
744.90	1078.05
745.23	1078.28
745.56	1086.71
745.89	1093.73
746.22	1096.31
746.55	1098.88
746.88	1090.69
747.21	1079.22
747.54	1075.24
747.87	1086.48
748.20	1072.43
748.53	1083.90
748.87	1103.56
749.20	1114.80
749.53	1106.37
749.86	1113.63
750.19	1099.12
750.52	1085.77
750.85	1075.01
751.18	1069.62
751.51	1055.82
751.84	1062.37
752.16	1054.88
752.49	1050.43
752.82	1053.01
753.15	1059.33
753.48	1055.11
753.81	1060.26
754.14	1060.73
754.47	1054.88
754.80	1063.31
755.13	1066.35
755.46	1062.37
755.79	1059.56
756.12	1061.43
756.45	1060.50
756.78	1055.82
757.11	1056.05
757.43	1060.50
757.76	1061.20
758.09	1061.20
758.42	1075.01
758.75	1080.16
759.08	1088.12
759.41	1104.03
759.74	1104.97
760.07	1085.07
760.39	1078.28
760.72	1070.09
761.05	1050.43
761.38	1045.05
761.71	1062.14
762.04	1068.69
762.36	1066.35
762.69	1075.01
763.02	1077.11
763.35	1072.67
763.68	1062.84
764.01	1067.75
764.33	1070.33
764.66	1071.73
764.99	1076.41
765.32	1084.37
765.65	1086.94
765.97	1082.50
766.30	1082.50
766.63	1073.84
766.96	1074.77
767.28	1069.62
767.61	1065.88
767.94	1064.24
768.27	1064.24
768.59	1062.60
768.92	1062.60
769.25	1074.54
769.58	1086.24
769.90	1080.63
770.23	1089.99
770.56	1093.03
770.89	1083.43
771.21	1070.56
771.54	1083.90
771.87	1082.73
772.19	1081.09
772.52	1081.09
772.85	1088.12
773.17	1092.56
773.50	1085.31
773.83	1082.03
774.15	1088.35
774.48	1086.48
774.81	1074.31
775.13	1062.14
775.46	1069.62
775.79	1072.20
776.11	1075.24
776.44	1091.16
776.77	1091.86
777.09	1087.41
777.42	1080.39
777.74	1071.03
778.07	1059.56
778.40	1076.88
778.72	1070.56
779.05	1064.24
779.37	1071.26
779.70	1079.46
780.03	1080.16
780.35	1086.01
780.68	1090.92
781.00	1086.71
781.33	1088.12
781.65	1086.94
781.98	1086.94
782.31	1087.88
782.63	1086.48
782.96	1083.43
783.28	1082.03
783.61	1083.90
783.93	1084.60
784.26	1082.03
784.58	1078.05
784.91	1070.56
785.23	1072.20
785.56	1064.71
785.88	1063.54
786.21	1057.69
786.53	1067.28
786.86	1069.16
787.18	1080.16
787.51	1092.80
787.83	1092.80
788.16	1097.24
788.48	1091.63
788.81	1084.60
789.13	1073.60
789.46	1074.77
789.78	1068.45
790.10	1082.26
790.43	1086.71
790.75	1093.50
791.08	1099.12
791.40	1092.33
791.73	1089.29
792.05	1083.90
792.37	1075.24
792.70	1060.96
793.02	1073.84
793.35	1066.58
793.67	1073.37
793.99	1081.09
794.32	1094.90
794.64	1086.48
794.96	1088.12
795.29	1091.16
795.61	1098.41
795.93	1100.29
796.26	1094.20
796.58	1086.01
796.91	1077.82
797.23	1072.90
797.55	1060.03
797.87	1065.18
798.20	1072.67
798.52	1070.56
798.84	1071.26
799.17	1083.90
799.49	1080.39
799.81	1078.75
800.14	1085.54
800.46	1079.46
800.78	1074.31
801.10	1063.77
801.43	1066.11
801.75	1071.97
802.07	1074.31
802.40	1083.90
802.72	1091.63
803.04	1090.69
803.36	1086.71
803.69	1079.22
804.01	1077.58
804.33	1081.33
804.65	1079.69
804.97	1077.11
805.30	1076.65
805.62	1069.62
805.94	1072.90
806.26	1063.07
806.58	1058.16
806.91	1068.69
807.23	1072.67
807.55	1069.62
807.87	1081.33
808.19	1086.01
808.52	1078.28
808.84	1078.99
809.16	1080.16
809.48	1078.28
809.80	1082.97
810.12	1089.75
810.44	1086.01
810.77	1092.33
811.09	1087.88
811.41	1081.56
811.73	1075.01
812.05	1070.33
812.37	1058.86
812.69	1069.86
813.01	1064.71
813.33	1077.11
813.66	1073.37
813.98	1067.28
814.30	1064.01
814.62	1065.41
814.94	1068.69
815.26	1080.16
815.58	1083.67
815.90	1080.63
816.22	1099.58
816.54	1083.90
816.86	1078.28
817.18	1086.48
817.50	1094.43
817.82	1084.84
818.14	1088.82
818.46	1088.35
818.78	1090.46
819.10	1076.65
819.42	1064.48
819.74	1062.84
820.06	1076.18
820.38	1077.58
820.70	1081.80
821.02	1080.39
821.34	1091.16
821.66	1084.37
821.98	1076.18
822.30	1079.22
822.62	1091.39
822.94	1086.01
823.26	1082.73
823.58	1093.50
823.90	1087.88
824.22	1081.09
824.54	1080.16
824.86	1082.97
825.18	1076.18
825.50	1081.09
825.81	1095.14
826.13	1098.88
826.45	1092.09
826.77	1093.26
827.09	1088.35
827.41	1077.58
827.73	1060.73
828.05	1060.03
828.36	1063.54
828.68	1065.41
829.00	1067.75
829.32	1076.18
829.64	1083.43
829.96	1077.35
830.28	1078.99
830.59	1075.71
830.91	1075.94
831.23	1068.45
831.55	1067.99
831.87	1071.26
832.19	1071.03
832.50	1070.56
832.82	1073.37
833.14	1075.94
833.46	1075.01
833.78	1075.48
834.09	1071.73
834.41	1074.54
834.73	1071.73
835.05	1068.69
835.36	1073.84
835.68	1077.82
836.00	1078.28
836.32	1082.97
836.63	1080.63
836.95	1081.33
837.27	1079.92
837.59	1082.03
837.90	1080.63
838.22	1089.29
838.54	1083.90
838.85	1089.29
839.17	1082.26
839.49	1080.86
839.80	1073.60
840.12	1067.52
840.44	1073.84
840.76	1072.43
841.07	1070.80
841.39	1074.07
841.71	1074.07
842.02	1070.09
842.34	1078.52
842.65	1078.28
842.97	1084.84
843.29	1096.78
843.60	1094.67
843.92	1087.65
844.24	1094.20
844.55	1097.01
844.87	1096.31
845.18	1094.90
845.50	1104.26
845.82	1093.26
846.13	1091.16
846.45	1088.82
846.76	1086.94
847.08	1075.48
847.40	1081.56
847.71	1068.22
848.03	1063.54
848.34	1070.80
848.66	1070.33
848.97	1079.22
849.29	1085.54
849.60	1087.88
849.92	1086.24
850.24	1085.77
850.55	1079.69
850.87	1077.58
851.18	1072.67
851.50	1066.35
851.81	1070.33
852.13	1074.07
852.44	1079.22
852.76	1091.16
853.07	1095.14
853.39	1094.43
853.70	1086.71
854.01	1072.90
854.33	1063.77
854.64	1057.69
854.96	1059.33
855.27	1054.65
855.59	1060.73
855.90	1059.79
856.22	1064.94
856.53	1070.80
856.84	1079.22
857.16	1075.71
857.47	1075.48
857.79	1068.69
858.10	1064.01
858.41	1066.35
858.73	1082.03
859.04	1087.65
859.36	1101.22
859.67	1100.99
859.98	1097.95
860.30	1088.35
860.61	1091.16
860.92	1078.75
861.24	1077.11
861.55	1070.80
861.87	1072.67
862.18	1061.90
862.49	1057.92
862.81	1052.30
863.12	1061.43
863.43	1059.09
863.74	1066.11
864.06	1071.03
864.37	1079.46
864.68	1071.50
865.00	1073.60
865.31	1073.14
865.62	1079.22
865.94	1078.99
866.25	1091.63
866.56	1087.18
866.87	1080.86
867.19	1088.35
867.50	1096.07
867.81	1086.01
868.12	1088.58
868.44	1087.18
868.75	1077.35
869.06	1070.33
869.37	1077.82
869.68	1076.88
870.00	1080.16
870.31	1075.94
870.62	1071.50
870.93	1064.01
871.24	1067.99
871.56	1070.56
871.87	1077.35
872.18	1081.56
872.49	1071.73
872.80	1064.94
873.12	1067.99
873.43	1071.97
873.74	1076.88
874.05	1087.88
874.36	1089.29
874.67	1097.48
874.98	1095.84
875.29	1089.99
875.61	1093.73
875.92	1098.65
876.23	1081.56
876.54	1074.54
876.85	1074.77
877.16	1075.24
877.47	1076.41
877.78	1081.80
878.09	1082.03
878.40	1083.67
878.72	1086.24
879.03	1078.99
879.34	1082.73
879.65	1085.77
879.96	1082.97
880.27	1074.31
880.58	1081.09
880.89	1079.69
881.20	1082.26
881.51	1083.20
881.82	1081.56
882.13	1071.03
882.44	1071.03
882.75	1067.75
883.06	1077.58
883.37	1082.50
883.68	1085.31
883.99	1078.05
884.30	1079.46
884.61	1068.92
884.92	1065.65
885.23	1077.11
885.54	1089.99
885.85	1086.01
886.16	1078.75
886.47	1082.97
886.78	1073.60
887.08	1061.90
887.39	1071.26
887.70	1086.48
888.01	1094.67
888.32	1085.54
888.63	1089.05
888.94	1083.20
889.25	1073.37
889.56	1067.05
889.87	1082.97
890.17	1087.88
890.48	1086.24
890.79	1086.71
891.10	1094.43
891.41	1091.86
891.72	1087.88
892.03	1093.97
892.34	1093.26
892.64	1089.05
892.95	1088.35
893.26	1091.63
893.57	1086.71
893.88	1080.16
894.18	1068.92
894.49	1066.82
894.80	1066.35
895.11	1064.48
895.42	1080.16
895.72	1085.31
896.03	1083.90
896.34	1079.22
896.65	1076.18
896.96	1060.73
897.26	1053.24
897.57	1058.16
897.88	1060.73
898.19	1059.33
898.49	1068.69
898.80	1074.77
899.11	1062.84
899.41	1063.77
899.72	1064.71
900.03	1064.24
900.34	1061.43
900.64	1076.18
900.95	1071.97
901.26	1079.92
901.56	1083.43
901.87	1081.56
902.18	1072.43
902.48	1071.97
902.79	1071.97
903.10	1073.84
903.40	1083.67
903.71	1096.31
904.02	1104.97
904.32	1104.50
904.63	1107.54
904.94	1099.82
905.24	1090.46
905.55	1089.75
905.85	1086.48
906.16	1071.73
906.47	1078.52
906.77	1083.43
907.08	1073.37
907.38	1067.05
907.69	1067.28
908.00	1063.31
908.30	1061.90
908.61	1062.14
908.91	1064.71
909.22	1066.11
909.52	1064.24
909.83	1066.35
910.14	1064.48
910.44	1062.37
910.75	1067.75
911.05	1076.65
911.36	1070.56
911.66	1074.31
911.97	1073.84
912.27	1076.18
912.58	1071.97
912.88	1076.65
913.19	1084.60
913.49	1092.33
913.80	1091.16
914.10	1090.69
914.41	1089.05
914.71	1090.92
915.01	1083.90
915.32	1086.01
915.62	1090.69
915.93	1091.16
916.23	1077.35
916.54	1089.05
916.84	1085.77
917.15	1084.84
917.45	1081.56
917.75	1095.37
918.06	1091.16
918.36	1091.16
918.67	1090.46
918.97	1086.48
919.27	1082.26
919.58	1084.84
919.88	1082.97
920.18	1077.11
920.49	1083.90
920.79	1081.33
921.10	1079.22
921.40	1077.11
921.70	1089.52
922.01	1091.39
922.31	1091.86
922.61	1086.71
922.92	1088.82
923.22	1070.80
923.52	1073.14
923.82	1074.31
924.13	1087.18
924.43	1084.84
924.73	1087.41
925.04	1085.07
925.34	1094.20
925.64	1097.24
925.94	1101.22
926.25	1100.05
926.55	1094.67
926.85	1080.86
927.15	1078.28
927.46	1080.16
927.76	1084.84
928.06	1086.24
928.36	1088.58
928.67	1076.41
928.97	1071.73
929.27	1075.94
929.57	1078.52
929.87	1074.77
930.18	1084.84
930.48	1098.88
930.78	1093.03
931.08	1098.41
931.38	1102.16
931.69	1103.09
931.99	1082.73
932.29	1083.67
932.59	1071.73
932.89	1078.75
933.19	1074.07
933.49	1077.82
933.80	1077.35
934.10	1079.46
934.40	1082.73
934.70	1084.37
935.00	1088.12
935.30	1090.69
935.60	1098.65
935.90	1090.46
936.20	1087.88
936.50	1087.88
936.81	1090.92
937.11	1085.31
937.41	1080.86
937.71	1074.77
938.01	1079.92
938.31	1072.20
938.61	1069.16
938.91	1075.71
939.21	1081.56
939.51	1077.35
939.81	1080.39
940.11	1082.73
940.41	1082.97
940.71	1086.24
941.01	1083.90
941.31	1075.24
941.61	1074.31
941.91	1075.01
942.21	1066.58
942.51	1072.90
942.81	1077.58
943.11	1076.65
943.41	1068.69
943.71	1073.37
944.01	1071.26
944.31	1069.16
944.61	1064.71
944.90	1070.80
945.20	1066.82
945.50	1068.92
945.80	1077.58
946.10	1086.48
946.40	1096.07
946.70	1091.86
947.00	1092.09
947.30	1086.24
947.60	1083.90
947.89	1069.39
948.19	1067.52
948.49	1065.88
948.79	1074.31
949.09	1075.01
949.39	1086.01
949.69	1091.86
949.98	1092.33
950.28	1078.52
950.58	1074.07
950.88	1069.39
951.18	1066.11
951.48	1066.11
951.77	1084.84
952.07	1094.90
952.37	1091.16
952.67	1092.56
952.97	1091.86
953.26	1076.88
953.56	1068.92
953.86	1070.80
954.16	1070.09
954.45	1068.45
954.75	1075.94
955.05	1077.11
955.35	1065.88
955.64	1076.41
955.94	1083.67
956.24	1081.09
956.54	1089.05
956.83	1105.67
957.13	1105.67
957.43	1098.88
957.72	1100.52
958.02	1091.86
958.32	1084.14
958.61	1078.75
958.91	1077.35
959.21	1075.24
959.50	1069.39
959.80	1075.01
960.10	1079.22
960.39	1075.94
960.69	1078.99
960.99	1087.65
961.28	1075.24
961.58	1069.39
961.87	1072.20
962.17	1075.48
962.47	1073.84
962.76	1089.99
963.06	1093.97
963.36	1097.48
963.65	1091.16
963.95	1090.92
964.24	1079.92
964.54	1066.11
964.83	1058.39
965.13	1054.18
965.42	1060.26
965.72	1071.97
966.02	1082.03
966.31	1081.09
966.61	1082.03
966.90	1081.09
967.20	1078.28
967.49	1075.94
967.79	1078.75
968.08	1078.52
968.38	1080.86
968.67	1075.01
968.97	1080.39
969.26	1091.86
969.56	1090.46
969.85	1085.54
970.15	1087.18
970.44	1081.56
970.74	1065.88
971.03	1070.33
971.32	1067.75
971.62	1061.90
971.91	1057.22
972.21	1066.35
972.50	1068.92
972.80	1072.67
973.09	1076.65
973.38	1094.20
973.68	1097.01
973.97	1101.22
974.27	1104.03
974.56	1103.80
974.85	1095.60
975.15	1090.22
975.44	1085.07
975.73	1075.24
976.03	1076.88
976.32	1071.97
976.61	1075.24
976.91	1074.77
977.20	1082.26
977.49	1075.48
977.79	1078.52
978.08	1071.97
978.37	1075.94
978.67	1074.54
978.96	1079.69
979.25	1079.92
979.55	1076.65
979.84	1076.18
980.13	1079.69
980.42	1079.69
980.72	1077.82
981.01	1083.43
981.30	1087.18
981.59	1085.31
981.89	1082.73
982.18	1085.31
982.47	1084.60
982.76	1085.07
983.06	1077.11
983.35	1076.88
983.64	1075.48
983.93	1071.26
984.22	1058.16
984.52	1069.62
984.81	1074.77
985.10	1063.54
985.39	1070.33
985.68	1075.01
985.97	1071.26
986.27	1079.69
986.56	1089.29
986.85	1102.63
987.14	1112.22
987.43	1110.58
987.72	1094.67
988.01	1097.95
988.31	1091.86
988.60	1083.20
988.89	1086.94
989.18	1091.86
989.47	1082.26
989.76	1077.11
990.05	1080.39
990.34	1079.22
990.63	1075.71
990.92	1089.52
991.21	1092.33
991.51	1091.16
991.80	1089.99
992.09	1105.20
992.38	1102.16
992.67	1093.50
992.96	1086.94
993.25	1089.52
993.54	1082.73
993.83	1089.52
994.12	1096.78
994.41	1104.50
994.70	1104.03
994.99	1092.33
995.28	1081.33
995.57	1078.75
995.86	1086.01
996.15	1088.58
996.44	1094.43
996.73	1100.99
997.02	1097.71
997.31	1089.29
997.59	1084.14
997.88	1085.31
998.17	1078.28
998.46	1094.90
998.75	1089.75
999.04	1082.73
999.33	1078.52
999.62	1084.37
999.91	1075.71
1000.20	1079.69
1000.49	1079.46
1000.77	1081.56
1001.06	1074.54
1001.35	1063.54
1001.64	1067.52
1001.93	1080.63
1002.22	1084.14
1002.51	1093.50
1002.79	1097.71
1003.08	1093.97
1003.37	1081.80
1003.66	1084.84
1003.95	1077.35
1004.23	1082.50
1004.52	1079.22
1004.81	1080.86
1005.10	1076.41
1005.39	1072.20
1005.67	1071.50
1005.96	1081.56
1006.25	1090.46
1006.54	1096.78
1006.83	1093.50
1007.11	1088.12
1007.40	1075.94
1007.69	1068.22
1007.97	1059.56
1008.26	1073.14
1008.55	1074.07
1008.84	1076.41
1009.12	1073.84
1009.41	1076.41
1009.70	1081.09
1009.98	1083.20
1010.27	1088.35
1010.56	1087.65
1010.85	1089.99
1011.13	1090.69
1011.42	1088.35
1011.71	1089.29
1011.99	1096.54
1012.28	1099.12
1012.56	1089.29
1012.85	1084.60
1013.14	1084.14
1013.42	1084.37
1013.71	1080.63
1014.00	1090.69
1014.28	1097.71
1014.57	1095.84
1014.85	1094.67
1015.14	1086.48
1015.43	1069.16
1015.71	1060.96
1016.00	1058.16
1016.28	1049.73
1016.57	1063.07
1016.85	1078.28
1017.14	1087.88
1017.43	1092.80
1017.71	1098.41
1018.00	1093.26
1018.28	1088.82
1018.57	1085.77
1018.85	1087.65
1019.14	1091.63
1019.42	1091.86
1019.71	1089.52
1019.99	1097.01
1020.28	1085.31
1020.56	1088.35
1020.85	1083.43
1021.13	1085.07
1021.42	1085.54
1021.70	1097.95
1021.99	1083.20
1022.27	1076.18
1022.55	1038.03
1022.84	1027.50
>>>>>End Processed Spectral Data<<<<<
