SpectraSuite Data File
++++++++++++++++++++++++++++++++++++
Date: Mon Aug 26 10:26:12 PDT 2019
User: corrico
Dark Spectrum Present: No
Reference Spectrum Present: No
Number of Sampled Component Spectra: 1
Spectrometers: USB2+H06089
Integration Time (usec): 10000 (USB2+H06089)
Spectra Averaged: 20 (USB2+H06089)
Boxcar Smoothing: 2 (USB2+H06089)
Correct for Electrical Dark: No (USB2+H06089)
Strobe/Lamp Enabled: No (USB2+H06089)
Correct for Detector Non-linearity: No (USB2+H06089)
Correct for Stray Light: No (USB2+H06089)
Number of Pixels in Processed Spectrum: 2048
>>>>>Begin Processed Spectral Data<<<<<
339.70	1025.51
340.07	1025.51
340.45	996.13
340.82	973.08
341.19	951.08
341.57	925.31
341.94	916.46
342.31	906.47
342.69	905.41
343.06	904.03
343.43	902.46
343.81	901.83
344.18	904.45
344.55	905.67
344.93	910.59
345.30	920.28
345.67	928.14
346.04	939.54
346.42	948.48
346.79	954.47
347.16	962.57
347.54	969.10
347.91	974.46
348.28	984.05
348.65	995.43
349.03	1002.01
349.40	1011.91
349.77	1022.79
350.14	1033.39
350.52	1040.81
350.89	1047.93
351.26	1052.14
351.63	1056.12
352.01	1057.88
352.38	1063.59
352.75	1071.47
353.12	1078.71
353.50	1083.90
353.87	1086.66
354.24	1084.98
354.61	1081.80
354.98	1084.32
355.36	1084.56
355.73	1088.75
356.10	1091.49
356.47	1092.09
356.84	1089.57
357.22	1090.71
357.59	1093.17
357.96	1093.59
358.33	1098.23
358.70	1098.09
359.08	1097.52
359.45	1094.01
359.82	1092.70
360.19	1087.93
360.56	1086.41
360.94	1083.81
361.31	1082.85
361.68	1083.90
362.05	1086.45
362.42	1085.84
362.79	1082.99
363.16	1081.35
363.54	1078.68
363.91	1078.94
364.28	1077.96
364.65	1080.09
365.02	1080.53
365.39	1080.46
365.76	1079.50
366.14	1078.45
366.51	1078.75
366.88	1075.99
367.25	1075.94
367.62	1077.86
367.99	1080.41
368.36	1081.66
368.73	1084.77
369.10	1084.58
369.48	1079.67
369.85	1080.32
370.22	1079.27
370.59	1079.46
370.96	1080.77
371.33	1087.48
371.70	1084.11
372.07	1085.68
372.44	1083.86
372.81	1082.19
373.18	1076.76
373.55	1080.41
373.93	1082.38
374.30	1081.00
374.67	1080.53
375.04	1081.56
375.41	1084.11
375.78	1082.12
376.15	1084.35
376.52	1085.96
376.89	1087.25
377.26	1086.50
377.63	1087.53
378.00	1088.04
378.37	1088.65
378.74	1088.96
379.11	1086.29
379.48	1084.07
379.85	1081.89
380.22	1080.02
380.59	1077.21
380.96	1076.81
381.33	1074.84
381.70	1079.57
382.07	1081.66
382.44	1084.32
382.81	1084.86
383.18	1083.53
383.55	1082.36
383.92	1083.53
384.29	1084.63
384.66	1087.20
385.03	1090.99
385.40	1087.67
385.77	1087.72
386.14	1087.74
386.51	1084.09
386.88	1083.60
387.25	1083.88
387.62	1082.17
387.99	1081.77
388.36	1084.53
388.73	1084.79
389.10	1087.72
389.46	1089.38
389.83	1089.43
390.20	1089.80
390.57	1089.19
390.94	1088.61
391.31	1088.77
391.68	1088.72
392.05	1087.13
392.42	1090.32
392.79	1089.89
393.16	1087.90
393.53	1085.68
393.89	1089.38
394.26	1086.69
394.63	1088.19
395.00	1090.10
395.37	1091.91
395.74	1089.40
396.11	1091.46
396.48	1088.79
396.84	1087.48
397.21	1088.00
397.58	1089.19
397.95	1087.18
398.32	1091.02
398.69	1092.00
399.06	1091.58
399.42	1092.26
399.79	1093.69
400.16	1090.92
400.53	1091.53
400.90	1091.67
401.27	1089.89
401.64	1089.66
402.00	1091.49
402.37	1093.66
402.74	1096.92
403.11	1099.65
403.48	1100.08
403.84	1100.71
404.21	1097.24
404.58	1094.62
404.95	1091.44
405.32	1092.40
405.68	1092.61
406.05	1095.23
406.42	1096.42
406.79	1101.62
407.16	1101.95
407.52	1100.40
407.89	1099.35
408.26	1099.65
408.63	1094.76
408.99	1094.29
409.36	1095.98
409.73	1096.26
410.10	1093.92
410.47	1093.99
410.83	1095.63
411.20	1093.73
411.57	1090.48
411.94	1093.76
412.30	1095.39
412.67	1095.09
413.04	1096.56
413.40	1099.96
413.77	1097.83
414.14	1099.40
414.51	1096.33
414.87	1095.37
415.24	1096.12
415.61	1097.01
415.97	1099.51
416.34	1103.87
416.71	1106.32
417.08	1105.55
417.44	1108.81
417.81	1107.89
418.18	1107.82
418.54	1106.44
418.91	1107.05
419.28	1103.61
419.64	1099.75
420.01	1099.00
420.38	1097.80
420.74	1101.18
421.11	1105.04
421.48	1108.83
421.84	1108.95
422.21	1109.16
422.58	1110.70
422.94	1105.55
423.31	1102.25
423.68	1102.39
424.04	1104.71
424.41	1102.70
424.77	1107.26
425.14	1107.38
425.51	1108.95
425.87	1112.62
426.24	1111.29
426.61	1110.84
426.97	1112.34
427.34	1109.74
427.70	1111.33
428.07	1115.08
428.44	1114.33
428.80	1116.41
429.17	1119.03
429.53	1115.22
429.90	1113.93
430.27	1113.28
430.63	1110.91
431.00	1113.18
431.36	1113.04
431.73	1111.36
432.09	1112.36
432.46	1112.25
432.83	1109.67
433.19	1110.58
433.56	1106.63
433.92	1104.31
434.29	1111.17
434.65	1113.04
435.02	1114.09
435.38	1121.84
435.75	1126.43
436.11	1121.98
436.48	1120.27
436.84	1117.61
437.21	1115.10
437.57	1117.16
437.94	1113.32
438.30	1113.86
438.67	1116.41
439.03	1115.57
439.40	1112.39
439.76	1115.87
440.13	1114.28
440.49	1112.85
440.86	1110.68
441.22	1111.45
441.59	1113.60
441.95	1112.78
442.32	1113.98
442.68	1114.33
443.05	1112.57
443.41	1111.24
443.78	1112.53
444.14	1109.77
444.51	1110.49
444.87	1110.05
445.24	1109.88
445.60	1109.44
445.96	1113.16
446.33	1111.03
446.69	1111.71
447.06	1110.75
447.42	1111.40
447.79	1105.76
448.15	1108.17
448.51	1110.14
448.88	1109.81
449.24	1108.76
449.61	1111.26
449.97	1113.11
450.33	1112.67
450.70	1109.55
451.06	1110.00
451.43	1109.95
451.79	1108.22
452.15	1105.08
452.52	1108.08
452.88	1108.34
453.24	1111.45
453.61	1112.15
453.97	1113.56
454.34	1116.44
454.70	1115.01
455.06	1111.68
455.43	1114.26
455.79	1116.93
456.15	1114.24
456.52	1114.54
456.88	1114.31
457.24	1111.31
457.61	1110.65
457.97	1111.24
458.33	1112.71
458.70	1111.50
459.06	1108.88
459.42	1110.21
459.79	1107.80
460.15	1108.36
460.51	1110.89
460.88	1117.72
461.24	1118.38
461.60	1122.24
461.96	1121.19
462.33	1124.84
462.69	1124.72
463.05	1123.86
463.42	1123.50
463.78	1125.42
464.14	1123.11
464.50	1122.59
464.87	1125.42
465.23	1125.77
465.59	1126.94
465.95	1129.64
466.32	1125.19
466.68	1123.93
467.04	1125.26
467.40	1126.45
467.77	1125.75
468.13	1133.31
468.49	1134.18
468.85	1136.52
469.22	1139.05
469.58	1143.33
469.94	1144.24
470.30	1144.76
470.66	1149.02
471.03	1152.71
471.39	1152.97
471.75	1152.85
472.11	1158.54
472.47	1158.85
472.84	1158.66
473.20	1159.78
473.56	1164.70
473.92	1164.44
474.28	1164.51
474.65	1166.99
475.01	1172.98
475.37	1176.07
475.73	1180.07
476.09	1189.53
476.45	1197.56
476.81	1199.83
477.18	1205.07
477.54	1214.13
477.90	1218.55
478.26	1224.12
478.62	1232.90
478.98	1243.20
479.34	1246.97
479.71	1252.58
480.07	1259.40
480.43	1269.37
480.79	1275.62
481.15	1287.93
481.51	1304.15
481.87	1320.13
482.23	1337.55
482.59	1351.99
482.96	1370.97
483.32	1386.00
483.68	1397.56
484.04	1410.15
484.40	1429.11
484.76	1447.15
485.12	1466.74
485.48	1489.14
485.84	1513.46
486.20	1536.47
486.56	1557.14
486.92	1585.20
487.28	1616.37
487.64	1645.56
488.00	1680.79
488.37	1715.59
488.73	1747.47
489.09	1781.62
489.45	1819.09
489.81	1859.88
490.17	1909.57
490.53	1957.51
490.89	1998.98
491.25	2047.90
491.61	2097.33
491.97	2140.77
492.33	2191.79
492.69	2252.84
493.05	2314.11
493.41	2383.93
493.77	2456.09
494.13	2532.62
494.49	2613.04
494.85	2692.08
495.21	2770.09
495.57	2863.01
495.93	2952.61
496.29	3045.72
496.64	3152.75
497.00	3261.40
497.36	3370.35
497.72	3491.24
498.08	3622.54
498.44	3753.82
498.80	3897.55
499.16	4056.52
499.52	4215.40
499.88	4384.46
500.24	4550.66
500.60	4726.15
500.96	4899.02
501.32	5073.86
501.68	5251.83
502.03	5458.55
502.39	5672.12
502.75	5897.03
503.11	6154.53
503.47	6424.82
503.83	6704.44
504.19	6988.18
504.55	7295.05
504.91	7592.89
505.26	7887.68
505.62	8240.28
505.98	8622.44
506.34	8998.26
506.70	9397.72
507.06	9859.25
507.42	10279.31
507.78	10700.63
508.13	11172.99
508.49	11684.21
508.85	12220.22
509.21	12784.87
509.57	13368.55
509.93	13955.23
510.28	14567.89
510.64	15216.71
511.00	15848.42
511.36	16512.81
511.72	17238.68
512.07	18039.68
512.43	18789.00
512.79	19667.52
513.15	20545.64
513.51	21303.72
513.86	22037.92
514.22	22893.27
514.58	23719.41
514.94	24538.11
515.30	25505.61
515.65	26521.29
516.01	27431.31
516.37	28362.05
516.73	29324.22
517.08	30178.68
517.44	30930.48
517.80	31774.13
518.16	32607.95
518.51	33465.38
518.87	34349.73
519.23	35349.27
519.59	36329.33
519.94	37307.91
520.30	38276.28
520.66	39153.75
521.01	39951.05
521.37	40706.13
521.73	41333.51
522.09	41859.87
522.44	42427.92
522.80	42929.36
523.16	43235.05
523.51	43499.00
523.87	43763.97
524.23	44080.20
524.58	44260.86
524.94	44626.22
525.30	44962.44
525.65	45238.08
526.01	45288.24
526.37	45505.12
526.72	45635.72
527.08	45626.38
527.44	45498.28
527.79	45431.67
528.15	45254.94
528.51	44976.11
528.86	44741.35
529.22	44469.99
529.58	44106.46
529.93	43663.77
530.29	43103.47
530.65	42568.80
531.00	42080.09
531.36	41514.83
531.71	40941.24
532.07	40454.90
532.43	39794.65
532.78	39080.25
533.14	38461.04
533.49	37832.58
533.85	37219.92
534.21	36728.74
534.56	36255.72
534.92	35693.12
535.27	35068.67
535.63	34289.92
535.98	33534.63
536.34	32809.14
536.69	32111.82
537.05	31501.64
537.41	31021.76
537.76	30448.22
538.12	29723.26
538.47	29093.26
538.83	28481.16
539.18	27845.05
539.54	27282.29
539.89	26845.52
540.25	26426.73
540.60	25965.74
540.96	25438.04
541.31	24970.94
541.67	24583.26
542.02	24126.43
542.38	23711.62
542.73	23300.97
543.09	22807.75
543.44	22279.84
543.80	21798.67
544.15	21343.23
544.51	20988.61
544.86	20691.67
545.22	20452.70
545.57	20169.17
545.93	19762.24
546.28	19339.12
546.64	18945.63
546.99	18501.63
547.35	18124.27
547.70	17796.80
548.05	17438.86
548.41	17057.36
548.76	16648.44
549.12	16241.23
549.47	15851.28
549.83	15541.34
550.18	15225.23
550.53	14911.20
550.89	14575.19
551.24	14221.82
551.60	13893.26
551.95	13609.93
552.30	13353.90
552.66	13160.13
553.01	12988.50
553.37	12737.64
553.72	12456.82
554.07	12200.84
554.43	11906.59
554.78	11594.97
555.13	11340.34
555.49	11046.91
555.84	10766.86
556.19	10491.50
556.55	10223.25
556.90	9957.95
557.26	9779.34
557.61	9598.98
557.96	9393.25
558.32	9202.24
558.67	9002.75
559.02	8772.21
559.37	8557.63
559.73	8390.66
560.08	8230.54
560.43	8045.61
560.79	7866.89
561.14	7678.03
561.49	7478.41
561.85	7287.77
562.20	7137.79
562.55	7014.09
562.90	6881.97
563.26	6756.47
563.61	6626.57
563.96	6473.97
564.32	6302.22
564.67	6158.46
565.02	6027.84
565.37	5913.53
565.73	5789.95
566.08	5680.69
566.43	5560.29
566.78	5422.32
567.14	5299.82
567.49	5196.46
567.84	5081.89
568.19	4978.86
568.54	4889.82
568.90	4795.24
569.25	4717.02
569.60	4639.43
569.95	4573.50
570.31	4504.31
570.66	4422.49
571.01	4327.56
571.36	4244.49
571.71	4157.33
572.06	4075.60
572.42	4000.89
572.77	3930.49
573.12	3858.47
573.47	3781.91
573.82	3714.31
574.18	3649.78
574.53	3583.36
574.88	3523.77
575.23	3462.35
575.58	3401.38
575.93	3341.40
576.28	3290.96
576.64	3238.62
576.99	3183.29
577.34	3126.30
577.69	3070.38
578.04	3009.06
578.39	2949.29
578.74	2894.52
579.09	2842.00
579.44	2786.27
579.80	2736.58
580.15	2692.76
580.50	2649.77
580.85	2608.81
581.20	2571.43
581.55	2533.21
581.90	2493.28
582.25	2450.49
582.60	2404.39
582.95	2373.89
583.30	2343.27
583.65	2314.30
584.00	2282.37
584.35	2259.72
584.71	2224.16
585.06	2192.47
585.41	2163.54
585.76	2143.37
586.11	2114.81
586.46	2087.52
586.81	2062.43
587.16	2030.46
587.51	2000.97
587.86	1979.74
588.21	1963.36
588.56	1937.50
588.91	1925.16
589.26	1907.79
589.61	1886.57
589.96	1864.05
590.31	1846.99
590.66	1823.09
591.01	1802.73
591.36	1778.43
591.71	1755.57
592.06	1733.63
592.41	1717.70
592.76	1702.32
593.10	1690.10
593.45	1678.68
593.80	1669.46
594.15	1654.08
594.50	1643.27
594.85	1631.00
595.20	1622.23
595.55	1610.52
595.90	1603.10
596.25	1587.87
596.60	1574.76
596.95	1560.65
597.30	1548.22
597.64	1587.28
597.99	1582.46
598.34	1573.07
598.69	1558.89
599.04	1546.79
599.39	1481.58
599.74	1464.40
600.09	1454.55
600.44	1447.95
600.78	1437.81
601.13	1432.27
601.48	1428.10
601.83	1425.69
602.18	1418.43
602.53	1411.44
602.88	1402.52
603.22	1393.06
603.57	1383.91
603.92	1371.65
604.27	1366.24
604.62	1361.51
604.97	1355.59
605.31	1346.67
605.66	1344.94
606.01	1338.04
606.36	1330.92
606.71	1324.74
607.05	1320.81
607.40	1315.57
607.75	1315.17
608.10	1313.02
608.44	1308.83
608.79	1303.35
609.14	1298.81
609.49	1289.47
609.84	1283.03
610.18	1280.90
610.53	1276.34
610.88	1272.22
611.23	1267.07
611.57	1263.21
611.92	1254.50
612.27	1250.10
612.62	1244.72
612.96	1241.70
613.31	1239.69
613.66	1238.05
614.00	1233.49
614.35	1229.25
614.70	1228.69
615.05	1224.29
615.39	1220.45
615.74	1218.11
616.09	1215.77
616.43	1210.08
616.78	1205.26
617.13	1202.52
617.47	1199.71
617.82	1197.09
618.17	1195.76
618.51	1192.71
618.86	1189.51
619.21	1189.16
619.55	1185.01
619.90	1179.82
620.25	1178.18
620.59	1176.99
620.94	1174.27
621.29	1176.84
621.63	1177.41
621.98	1174.79
622.32	1172.19
622.67	1168.33
623.02	1163.22
623.36	1160.18
623.71	1159.01
624.05	1156.86
624.40	1155.29
624.75	1150.12
625.09	1149.23
625.44	1146.44
625.78	1146.77
626.13	1149.39
626.48	1152.29
626.82	1151.24
627.17	1149.69
627.51	1148.78
627.86	1144.03
628.20	1145.62
628.55	1141.99
628.89	1142.39
629.24	1142.58
629.58	1145.04
629.93	1142.74
630.28	1144.03
630.62	1141.50
630.97	1139.35
631.31	1136.12
631.66	1133.36
632.00	1132.89
632.35	1133.15
632.69	1128.02
633.04	1125.35
633.38	1126.57
633.73	1126.80
634.07	1125.33
634.42	1126.62
634.76	1122.90
635.11	1119.38
635.45	1116.65
635.79	1117.28
636.14	1117.07
636.48	1121.40
636.83	1119.78
637.17	1119.60
637.52	1116.76
637.86	1115.90
638.21	1113.42
638.55	1114.70
638.89	1114.82
639.24	1120.84
639.58	1122.87
639.93	1123.34
640.27	1122.54
640.61	1123.27
640.96	1117.72
641.30	1116.08
641.65	1112.20
641.99	1112.43
642.33	1111.38
642.68	1110.58
643.02	1109.55
643.37	1110.30
643.71	1104.99
644.05	1099.84
644.40	1100.38
644.74	1099.44
645.08	1100.50
645.43	1105.67
645.77	1108.90
646.11	1108.88
646.46	1108.85
646.80	1107.40
647.14	1105.81
647.49	1106.07
647.83	1106.58
648.17	1103.94
648.52	1103.75
648.86	1101.01
649.20	1101.34
649.55	1102.42
649.89	1105.79
650.23	1105.01
650.57	1105.90
650.92	1105.76
651.26	1102.11
651.60	1100.26
651.95	1100.82
652.29	1100.71
652.63	1096.85
652.97	1094.36
653.32	1091.88
653.66	1092.14
654.00	1090.78
654.34	1091.70
654.69	1095.04
655.03	1098.81
655.37	1099.86
655.71	1102.13
656.05	1102.77
656.40	1103.59
656.74	1101.57
657.08	1104.10
657.42	1104.36
657.76	1103.12
658.11	1101.71
658.45	1102.28
658.79	1096.03
659.13	1096.42
659.47	1097.69
659.82	1095.39
660.16	1097.08
660.50	1099.86
660.84	1100.87
661.18	1098.69
661.52	1099.26
661.87	1096.96
662.21	1098.65
662.55	1097.52
662.89	1098.11
663.23	1094.15
663.57	1096.00
663.91	1092.70
664.25	1092.26
664.60	1091.65
664.94	1097.88
665.28	1096.26
665.62	1098.34
665.96	1096.56
666.30	1097.64
666.64	1095.86
666.98	1096.54
667.32	1095.89
667.66	1097.76
668.01	1094.18
668.35	1097.66
668.69	1094.13
669.03	1093.64
669.37	1088.44
669.71	1090.41
670.05	1087.02
670.39	1088.09
670.73	1084.86
671.07	1088.58
671.41	1091.13
671.75	1091.46
672.09	1092.59
672.43	1096.54
672.77	1096.35
673.11	1096.56
673.45	1094.65
673.79	1091.74
674.13	1089.99
674.47	1089.31
674.81	1090.29
675.15	1090.46
675.49	1090.20
675.83	1091.34
676.17	1089.03
676.51	1088.79
676.85	1090.06
677.19	1093.50
677.53	1094.27
677.87	1097.80
678.21	1096.49
678.55	1096.19
678.89	1095.70
679.23	1097.01
679.57	1097.83
679.90	1098.13
680.24	1096.24
680.58	1093.71
680.92	1091.32
681.26	1092.23
681.60	1091.42
681.94	1096.82
682.28	1096.54
682.62	1096.73
682.96	1092.07
683.29	1088.86
683.63	1083.93
683.97	1084.25
684.31	1083.34
684.65	1085.42
684.99	1083.39
685.33	1084.02
685.67	1085.73
686.00	1086.92
686.34	1088.86
686.68	1091.27
687.02	1093.31
687.36	1092.66
687.70	1089.33
688.03	1085.87
688.37	1088.28
688.71	1088.04
689.05	1089.43
689.39	1091.86
689.72	1091.91
690.06	1092.07
690.40	1090.62
690.74	1089.38
691.08	1091.27
691.41	1091.02
691.75	1086.83
692.09	1087.30
692.43	1088.14
692.76	1085.52
693.10	1084.77
693.44	1090.85
693.78	1090.17
694.11	1087.27
694.45	1084.28
694.79	1087.11
695.13	1085.19
695.46	1086.85
695.80	1091.42
696.14	1093.08
696.48	1093.29
696.81	1090.13
697.15	1087.88
697.49	1084.46
697.82	1087.11
698.16	1084.04
698.50	1085.77
698.83	1085.05
699.17	1087.37
699.51	1086.87
699.84	1088.56
700.18	1090.27
700.52	1090.36
700.85	1087.46
701.19	1089.66
701.53	1093.12
701.86	1091.13
702.20	1092.42
702.54	1094.46
702.87	1092.96
703.21	1089.26
703.55	1089.45
703.88	1091.23
704.22	1091.42
704.55	1090.13
704.89	1091.27
705.23	1090.13
705.56	1086.01
705.90	1084.89
706.23	1082.66
706.57	1083.95
706.91	1083.97
707.24	1089.00
707.58	1092.87
707.91	1094.15
708.25	1093.64
708.58	1092.87
708.92	1090.43
709.26	1087.55
709.59	1086.78
709.93	1086.43
710.26	1089.31
710.60	1088.09
710.93	1089.03
711.27	1089.52
711.60	1090.95
711.94	1089.07
712.27	1088.02
712.61	1087.32
712.94	1087.16
713.28	1081.37
713.61	1083.32
713.95	1083.90
714.28	1082.31
714.62	1082.78
714.95	1086.01
715.29	1082.22
715.62	1083.22
715.96	1084.37
716.29	1086.48
716.63	1086.80
716.96	1089.99
717.29	1087.34
717.63	1086.38
717.96	1083.76
718.30	1084.46
718.63	1085.21
718.97	1089.12
719.30	1089.26
719.63	1088.91
719.97	1087.16
720.30	1085.35
720.64	1084.63
720.97	1083.27
721.30	1082.66
721.64	1084.42
721.97	1085.33
722.31	1084.91
722.64	1086.97
722.97	1090.13
723.31	1090.20
723.64	1090.08
723.97	1087.23
724.31	1088.56
724.64	1087.04
724.98	1084.70
725.31	1085.73
725.64	1089.68
725.98	1087.06
726.31	1085.54
726.64	1087.25
726.97	1084.23
727.31	1079.50
727.64	1082.36
727.97	1083.74
728.31	1085.91
728.64	1084.74
728.97	1088.82
729.31	1086.17
729.64	1086.64
729.97	1081.61
730.30	1085.89
730.64	1083.60
730.97	1085.26
731.30	1084.32
731.63	1087.30
731.97	1085.35
732.30	1085.77
732.63	1081.28
732.96	1084.98
733.30	1086.15
733.63	1089.33
733.96	1090.64
734.29	1092.98
734.63	1087.83
734.96	1087.58
735.29	1082.45
735.62	1079.13
735.95	1082.64
736.29	1085.96
736.62	1084.72
736.95	1086.41
737.28	1090.71
737.61	1089.50
737.94	1089.24
738.28	1089.68
738.61	1089.54
738.94	1087.72
739.27	1083.08
739.60	1082.92
739.93	1082.73
740.27	1085.24
740.60	1085.70
740.93	1091.72
741.26	1092.96
741.59	1097.76
741.92	1097.92
742.25	1097.43
742.58	1095.37
742.91	1091.60
743.25	1085.75
743.58	1081.91
743.91	1080.79
744.24	1078.07
744.57	1078.75
744.90	1082.10
745.23	1085.07
745.56	1085.61
745.89	1089.31
746.22	1089.75
746.55	1085.31
746.88	1085.68
747.21	1087.67
747.54	1087.58
747.87	1085.63
748.20	1088.26
748.53	1089.80
748.87	1086.15
749.20	1084.02
749.53	1088.91
749.86	1086.62
750.19	1082.80
750.52	1085.19
750.85	1087.55
751.18	1085.07
751.51	1085.84
751.84	1088.42
752.16	1089.45
752.49	1086.87
752.82	1087.93
753.15	1088.56
753.48	1084.96
753.81	1084.25
754.14	1084.04
754.47	1084.63
754.80	1086.15
755.13	1088.40
755.46	1087.18
755.79	1085.84
756.12	1087.86
756.45	1086.38
756.78	1087.67
757.11	1088.84
757.43	1091.60
757.76	1087.48
758.09	1088.09
758.42	1086.08
758.75	1087.25
759.08	1088.16
759.41	1090.55
759.74	1088.40
760.07	1088.68
760.39	1087.41
760.72	1086.22
761.05	1084.84
761.38	1085.10
761.71	1085.80
762.04	1086.76
762.36	1087.83
762.69	1086.90
763.02	1088.56
763.35	1087.60
763.68	1087.81
764.01	1084.49
764.33	1082.52
764.66	1081.56
764.99	1083.39
765.32	1082.83
765.65	1085.14
765.97	1086.43
766.30	1086.22
766.63	1084.04
766.96	1083.43
767.28	1081.02
767.61	1082.10
767.94	1082.36
768.27	1083.06
768.59	1086.66
768.92	1088.51
769.25	1089.71
769.58	1091.42
769.90	1092.09
770.23	1091.42
770.56	1090.08
770.89	1088.14
771.21	1087.39
771.54	1087.69
771.87	1087.46
772.19	1090.36
772.52	1091.27
772.85	1091.51
773.17	1090.92
773.50	1087.27
773.83	1087.06
774.15	1086.71
774.48	1085.31
774.81	1082.50
775.13	1082.83
775.46	1079.34
775.79	1080.93
776.11	1083.86
776.44	1089.66
776.77	1091.44
777.09	1095.23
777.42	1092.05
777.74	1090.81
778.07	1085.80
778.40	1088.02
778.72	1089.40
779.05	1092.59
779.37	1090.57
779.70	1095.77
780.03	1094.72
780.35	1091.88
780.68	1091.39
781.00	1090.15
781.33	1088.63
781.65	1085.77
781.98	1085.24
782.31	1085.07
782.63	1084.79
782.96	1081.82
783.28	1080.44
783.61	1080.60
783.93	1078.03
784.26	1079.55
784.58	1080.04
784.91	1081.70
785.23	1085.49
785.56	1086.90
785.88	1088.07
786.21	1089.12
786.53	1088.63
786.86	1088.00
787.18	1087.90
787.51	1087.79
787.83	1085.24
788.16	1086.62
788.48	1083.13
788.81	1084.02
789.13	1084.67
789.46	1086.55
789.78	1086.31
790.10	1086.69
790.43	1089.54
790.75	1089.89
791.08	1086.85
791.40	1082.85
791.73	1086.73
792.05	1082.90
792.37	1080.53
792.70	1081.30
793.02	1088.16
793.35	1085.19
793.67	1085.42
793.99	1087.39
794.32	1090.78
794.64	1090.34
794.96	1090.67
795.29	1089.40
795.61	1089.43
795.93	1088.82
796.26	1085.80
796.58	1086.48
796.91	1089.89
797.23	1088.26
797.55	1088.96
797.87	1091.39
798.20	1088.63
798.52	1086.13
798.84	1088.61
799.17	1085.91
799.49	1084.07
799.81	1084.96
800.14	1085.87
800.46	1083.29
800.78	1084.58
801.10	1084.49
801.43	1085.80
801.75	1083.64
802.07	1085.63
802.40	1087.65
802.72	1085.40
803.04	1084.04
803.36	1086.24
803.69	1085.28
804.01	1083.79
804.33	1083.83
804.65	1084.25
804.97	1083.67
805.30	1081.14
805.62	1079.48
805.94	1079.57
806.26	1077.65
806.58	1077.44
806.91	1082.26
807.23	1087.55
807.55	1089.99
807.87	1089.85
808.19	1090.55
808.52	1091.04
808.84	1086.22
809.16	1084.70
809.48	1089.03
809.80	1086.97
810.12	1083.01
810.44	1082.83
810.77	1083.36
811.09	1079.62
811.41	1084.30
811.73	1086.90
812.05	1089.03
812.37	1089.36
812.69	1091.13
813.01	1087.55
813.33	1085.33
813.66	1081.05
813.98	1079.34
814.30	1076.67
814.62	1077.65
814.94	1077.44
815.26	1082.52
815.58	1086.06
815.90	1089.61
816.22	1089.68
816.54	1092.84
816.86	1093.17
817.18	1091.63
817.50	1091.23
817.82	1091.23
818.14	1086.22
818.46	1084.72
818.78	1086.80
819.10	1087.97
819.42	1088.09
819.74	1090.62
820.06	1092.28
820.38	1090.29
820.70	1086.43
821.02	1087.65
821.34	1088.89
821.66	1087.72
821.98	1087.65
822.30	1086.66
822.62	1083.76
822.94	1081.44
823.26	1078.17
823.58	1074.33
823.90	1076.72
824.22	1077.02
824.54	1079.27
824.86	1082.24
825.18	1084.98
825.50	1083.15
825.81	1081.12
826.13	1079.10
826.45	1076.81
826.77	1077.65
827.09	1078.73
827.41	1080.77
827.73	1081.35
828.05	1083.29
828.36	1083.36
828.68	1082.59
829.00	1085.54
829.32	1084.67
829.64	1082.40
829.96	1080.20
830.28	1085.84
830.59	1081.96
830.91	1084.25
831.23	1085.66
831.55	1087.79
831.87	1086.27
832.19	1088.21
832.50	1086.48
832.82	1085.75
833.14	1085.52
833.46	1084.74
833.78	1086.13
834.09	1085.96
834.41	1087.51
834.73	1089.66
835.05	1090.62
835.36	1089.40
835.68	1089.66
836.00	1089.59
836.32	1089.00
836.63	1084.18
836.95	1084.28
837.27	1087.09
837.59	1087.86
837.90	1084.74
838.22	1086.92
838.54	1086.50
838.85	1082.24
839.17	1078.26
839.49	1079.90
839.80	1080.18
840.12	1081.44
840.44	1083.79
840.76	1087.58
841.07	1089.26
841.39	1089.05
841.71	1086.99
842.02	1084.79
842.34	1083.20
842.65	1081.51
842.97	1080.77
843.29	1082.22
843.60	1083.34
843.92	1081.80
844.24	1083.15
844.55	1081.73
844.87	1080.37
845.18	1082.69
845.50	1084.28
845.82	1083.20
846.13	1086.83
846.45	1089.10
846.76	1089.94
847.08	1092.96
847.40	1092.35
847.71	1090.20
848.03	1090.22
848.34	1089.94
848.66	1087.04
848.97	1086.36
849.29	1085.10
849.60	1082.87
849.92	1081.05
850.24	1079.17
850.55	1078.03
850.87	1079.64
851.18	1078.43
851.50	1076.08
851.81	1078.31
852.13	1079.43
852.44	1079.69
852.76	1081.02
853.07	1082.71
853.39	1079.15
853.70	1081.82
854.01	1082.50
854.33	1084.46
854.64	1085.35
854.96	1088.86
855.27	1085.19
855.59	1085.05
855.90	1081.23
856.22	1082.03
856.53	1078.54
856.84	1080.11
857.16	1079.71
857.47	1081.80
857.79	1080.02
858.10	1084.89
858.41	1086.24
858.73	1085.17
859.04	1085.00
859.36	1087.93
859.67	1085.84
859.98	1087.74
860.30	1088.33
860.61	1088.61
860.92	1083.62
861.24	1085.47
861.55	1086.83
861.87	1087.32
862.18	1086.76
862.49	1088.56
862.81	1086.06
863.12	1082.94
863.43	1083.64
863.74	1083.90
864.06	1086.43
864.37	1087.09
864.68	1086.01
865.00	1083.50
865.31	1081.44
865.62	1077.56
865.94	1076.81
866.25	1076.32
866.56	1079.62
866.87	1081.82
867.19	1082.92
867.50	1083.69
867.81	1082.54
868.12	1079.67
868.44	1080.88
868.75	1081.14
869.06	1084.23
869.37	1085.49
869.68	1085.63
870.00	1084.46
870.31	1082.38
870.62	1079.48
870.93	1080.25
871.24	1083.90
871.56	1082.73
871.87	1086.80
872.18	1086.15
872.49	1087.93
872.80	1083.48
873.12	1082.69
873.43	1081.77
873.74	1083.18
874.05	1080.34
874.36	1080.98
874.67	1081.61
874.98	1079.92
875.29	1081.66
875.61	1082.83
875.92	1082.76
876.23	1085.14
876.54	1083.71
876.85	1083.01
877.16	1085.26
877.47	1086.15
877.78	1084.51
878.09	1086.94
878.40	1084.28
878.72	1082.38
879.03	1085.91
879.34	1089.22
879.65	1089.68
879.96	1092.26
880.27	1091.74
880.58	1088.47
880.89	1082.24
881.20	1081.40
881.51	1077.63
881.82	1078.52
882.13	1079.76
882.44	1085.52
882.75	1082.71
883.06	1084.79
883.37	1082.73
883.68	1078.78
883.99	1078.80
884.30	1081.47
884.61	1079.55
884.92	1080.23
885.23	1082.64
885.54	1082.03
885.85	1082.57
886.16	1082.69
886.47	1084.18
886.78	1087.27
887.08	1085.68
887.39	1086.66
887.70	1087.41
888.01	1085.21
888.32	1081.26
888.63	1078.36
888.94	1077.30
889.25	1080.77
889.56	1083.88
889.87	1087.02
890.17	1090.69
890.48	1088.04
890.79	1085.33
891.10	1079.15
891.41	1075.34
891.72	1074.75
892.03	1076.44
892.34	1075.90
892.64	1083.90
892.95	1085.49
893.26	1081.94
893.57	1083.13
893.88	1083.93
894.18	1079.92
894.49	1082.90
894.80	1085.54
895.11	1086.29
895.42	1085.42
895.72	1084.32
896.03	1082.94
896.34	1084.11
896.65	1082.36
896.96	1082.80
897.26	1083.08
897.57	1080.37
897.88	1077.56
898.19	1078.24
898.49	1079.01
898.80	1079.27
899.11	1079.13
899.41	1081.35
899.72	1079.08
900.03	1075.55
900.34	1074.94
900.64	1077.14
900.95	1078.03
901.26	1081.23
901.56	1085.70
901.87	1087.02
902.18	1084.65
902.48	1084.81
902.79	1085.49
903.10	1084.53
903.40	1086.73
903.71	1090.22
904.02	1087.53
904.32	1085.84
904.63	1083.36
904.94	1080.84
905.24	1076.34
905.55	1078.10
905.85	1078.59
906.16	1082.71
906.47	1082.40
906.77	1084.28
907.08	1086.85
907.38	1084.63
907.69	1082.54
908.00	1082.90
908.30	1084.18
908.61	1078.12
908.91	1080.11
909.22	1082.15
909.52	1079.06
909.83	1078.19
910.14	1079.38
910.44	1075.62
910.75	1073.00
911.05	1074.10
911.36	1072.97
911.66	1072.55
911.97	1076.11
912.27	1077.68
912.58	1081.89
912.88	1082.59
913.19	1087.25
913.49	1084.49
913.80	1085.77
914.10	1082.92
914.41	1084.98
914.71	1081.73
915.01	1082.29
915.32	1081.54
915.62	1081.21
915.93	1080.70
916.23	1081.56
916.54	1083.57
916.84	1081.82
917.15	1083.15
917.45	1081.80
917.75	1080.02
918.06	1081.19
918.36	1081.09
918.67	1079.50
918.97	1080.44
919.27	1082.71
919.58	1080.23
919.88	1079.46
920.18	1082.92
920.49	1080.84
920.79	1078.47
921.10	1082.43
921.40	1081.73
921.70	1081.09
922.01	1083.93
922.31	1082.78
922.61	1082.97
922.92	1083.57
923.22	1079.41
923.52	1079.53
923.82	1082.45
924.13	1075.22
924.43	1078.64
924.73	1080.51
925.04	1078.64
925.34	1078.31
925.64	1082.69
925.94	1080.79
926.25	1081.23
926.55	1084.89
926.85	1084.56
927.15	1083.11
927.46	1081.70
927.76	1079.53
928.06	1076.39
928.36	1075.38
928.67	1078.05
928.97	1080.56
929.27	1083.18
929.57	1084.35
929.87	1088.70
930.18	1088.19
930.48	1087.72
930.78	1087.79
931.08	1084.18
931.38	1079.85
931.69	1078.28
931.99	1076.27
932.29	1075.17
932.59	1077.96
932.89	1077.65
933.19	1081.07
933.49	1082.15
933.80	1080.60
934.10	1079.01
934.40	1082.97
934.70	1080.58
935.00	1081.30
935.30	1084.25
935.60	1083.90
935.90	1080.11
936.20	1079.48
936.50	1077.25
936.81	1076.53
937.11	1075.29
937.41	1076.67
937.71	1077.49
938.01	1079.31
938.31	1079.83
938.61	1083.97
938.91	1087.11
939.21	1088.75
939.51	1090.76
939.81	1091.53
940.11	1090.29
940.41	1088.93
940.71	1087.32
941.01	1084.44
941.31	1082.61
941.61	1086.27
941.91	1083.95
942.21	1083.74
942.51	1085.03
942.81	1084.79
943.11	1079.57
943.41	1081.42
943.71	1083.46
944.01	1083.81
944.31	1086.73
944.61	1089.50
944.90	1086.83
945.20	1083.27
945.50	1082.76
945.80	1081.77
946.10	1082.05
946.40	1083.50
946.70	1089.57
947.00	1090.39
947.30	1085.94
947.60	1085.49
947.89	1084.79
948.19	1077.37
948.49	1077.28
948.79	1078.28
949.09	1078.75
949.39	1080.25
949.69	1079.48
949.98	1079.83
950.28	1080.86
950.58	1078.75
950.88	1077.35
951.18	1076.60
951.48	1076.34
951.77	1076.74
952.07	1079.41
952.37	1080.25
952.67	1083.62
952.97	1082.71
953.26	1085.87
953.56	1081.70
953.86	1079.88
954.16	1079.71
954.45	1078.78
954.75	1078.45
955.05	1082.87
955.35	1087.18
955.64	1088.00
955.94	1088.86
956.24	1087.11
956.54	1085.68
956.83	1080.32
957.13	1080.41
957.43	1081.73
957.72	1082.66
958.02	1080.65
958.32	1081.73
958.61	1082.87
958.91	1080.27
959.21	1078.92
959.50	1080.39
959.80	1084.02
960.10	1083.29
960.39	1083.27
960.69	1082.90
960.99	1082.52
961.28	1082.54
961.58	1081.16
961.87	1081.14
962.17	1077.07
962.47	1075.92
962.76	1076.88
963.06	1077.86
963.36	1078.61
963.65	1084.16
963.95	1084.44
964.24	1084.09
964.54	1085.24
964.83	1085.99
965.13	1085.28
965.42	1084.39
965.72	1082.12
966.02	1082.17
966.31	1084.51
966.61	1082.33
966.90	1084.28
967.20	1083.76
967.49	1085.21
967.79	1081.87
968.08	1084.32
968.38	1084.39
968.67	1083.76
968.97	1082.26
969.26	1085.63
969.56	1086.24
969.85	1086.15
970.15	1088.61
970.44	1085.94
970.74	1085.26
971.03	1084.18
971.32	1083.79
971.62	1080.58
971.91	1081.28
972.21	1079.95
972.50	1079.62
972.80	1082.45
973.09	1083.93
973.38	1083.93
973.68	1085.17
973.97	1083.97
974.27	1084.18
974.56	1084.00
974.85	1083.79
975.15	1082.78
975.44	1086.43
975.73	1085.17
976.03	1083.15
976.32	1085.05
976.61	1085.52
976.91	1083.83
977.20	1084.98
977.49	1086.50
977.79	1086.08
978.08	1083.41
978.37	1085.96
978.67	1084.42
978.96	1086.34
979.25	1085.00
979.55	1085.28
979.84	1080.51
980.13	1076.69
980.42	1075.05
980.72	1075.36
981.01	1075.83
981.30	1078.38
981.59	1079.38
981.89	1082.17
982.18	1083.90
982.47	1084.81
982.76	1084.74
983.06	1085.24
983.35	1082.01
983.64	1083.74
983.93	1083.01
984.22	1086.41
984.52	1087.09
984.81	1089.22
985.10	1086.52
985.39	1087.69
985.68	1080.72
985.97	1081.61
986.27	1081.35
986.56	1081.96
986.85	1079.81
987.14	1080.30
987.43	1078.85
987.72	1078.45
988.01	1079.22
988.31	1079.13
988.60	1079.38
988.89	1078.61
989.18	1076.04
989.47	1072.34
989.76	1073.58
990.05	1076.62
990.34	1078.94
990.63	1080.51
990.92	1084.60
991.21	1083.22
991.51	1081.91
991.80	1082.10
992.09	1082.10
992.38	1079.22
992.67	1081.82
992.96	1081.63
993.25	1081.80
993.54	1082.15
993.83	1084.02
994.12	1081.28
994.41	1082.31
994.70	1083.20
994.99	1083.46
995.28	1080.91
995.57	1081.09
995.86	1082.19
996.15	1080.48
996.44	1079.97
996.73	1081.37
997.02	1082.26
997.31	1081.87
997.59	1080.70
997.88	1082.45
998.17	1082.38
998.46	1084.30
998.75	1082.78
999.04	1084.16
999.33	1085.33
999.62	1083.79
999.91	1082.54
1000.20	1083.95
1000.49	1083.79
1000.77	1080.06
1001.06	1082.03
1001.35	1081.82
1001.64	1080.84
1001.93	1080.18
1002.22	1082.17
1002.51	1081.63
1002.79	1080.37
1003.08	1075.83
1003.37	1076.01
1003.66	1075.20
1003.95	1076.95
1004.23	1081.19
1004.52	1085.17
1004.81	1087.09
1005.10	1088.75
1005.39	1085.63
1005.67	1081.00
1005.96	1081.12
1006.25	1081.61
1006.54	1080.72
1006.83	1080.81
1007.11	1083.88
1007.40	1084.14
1007.69	1080.86
1007.97	1083.13
1008.26	1085.42
1008.55	1086.78
1008.84	1088.54
1009.12	1089.31
1009.41	1089.61
1009.70	1089.43
1009.98	1086.22
1010.27	1083.43
1010.56	1083.64
1010.85	1079.36
1011.13	1080.58
1011.42	1081.44
1011.71	1083.55
1011.99	1083.69
1012.28	1085.99
1012.56	1082.85
1012.85	1080.67
1013.14	1081.40
1013.42	1079.88
1013.71	1075.92
1014.00	1078.05
1014.28	1081.87
1014.57	1080.09
1014.85	1080.93
1015.14	1081.98
1015.43	1080.88
1015.71	1081.05
1016.00	1081.87
1016.28	1082.87
1016.57	1084.72
1016.85	1083.41
1017.14	1080.93
1017.43	1079.90
1017.71	1076.76
1018.00	1077.47
1018.28	1075.50
1018.57	1076.81
1018.85	1073.86
1019.14	1074.80
1019.42	1074.33
1019.71	1078.38
1019.99	1075.41
1020.28	1078.54
1020.56	1077.44
1020.85	1075.48
1021.13	1075.17
1021.42	1077.68
1021.70	1077.79
1021.99	1079.67
1022.27	1080.98
1022.55	1075.83
1022.84	1080.74
>>>>>End Processed Spectral Data<<<<<
