SpectraSuite Data File
++++++++++++++++++++++++++++++++++++
Date: Mon Aug 26 10:26:00 PDT 2019
User: corrico
Dark Spectrum Present: No
Reference Spectrum Present: No
Number of Sampled Component Spectra: 1
Spectrometers: USB2+H06089
Integration Time (usec): 10000 (USB2+H06089)
Spectra Averaged: 2 (USB2+H06089)
Boxcar Smoothing: 2 (USB2+H06089)
Correct for Electrical Dark: No (USB2+H06089)
Strobe/Lamp Enabled: No (USB2+H06089)
Correct for Detector Non-linearity: No (USB2+H06089)
Correct for Stray Light: No (USB2+H06089)
Number of Pixels in Processed Spectrum: 2048
>>>>>Begin Processed Spectral Data<<<<<
339.70	985.37
340.07	985.37
340.45	969.68
340.82	957.28
341.19	941.83
341.57	928.72
341.94	916.32
342.31	906.02
342.69	899.47
343.06	901.11
343.43	887.53
343.81	893.15
344.18	899.70
344.55	909.06
344.93	909.53
345.30	920.53
345.67	928.72
346.04	938.09
346.42	943.70
346.79	954.00
347.16	966.17
347.54	964.77
347.91	971.09
348.28	972.26
348.65	982.79
349.03	994.73
349.40	1006.90
349.77	1003.39
350.14	1021.18
350.52	1028.43
350.89	1039.20
351.26	1048.33
351.63	1064.01
352.01	1074.31
352.38	1077.11
352.75	1070.09
353.12	1073.84
353.50	1074.77
353.87	1062.60
354.24	1063.07
354.61	1074.07
354.98	1075.71
355.36	1068.92
355.73	1081.80
356.10	1080.63
356.47	1075.48
356.84	1068.22
357.22	1079.69
357.59	1076.18
357.96	1084.60
358.33	1082.50
358.70	1092.09
359.08	1089.99
359.45	1081.80
359.82	1077.11
360.19	1073.60
360.56	1072.43
360.94	1076.88
361.31	1071.50
361.68	1071.03
362.05	1080.16
362.42	1077.11
362.79	1076.65
363.16	1082.73
363.54	1085.07
363.91	1079.92
364.28	1085.31
364.65	1080.86
365.02	1081.56
365.39	1082.73
365.76	1078.05
366.14	1072.20
366.51	1072.67
366.88	1072.20
367.25	1062.60
367.62	1067.75
367.99	1059.79
368.36	1059.56
368.73	1056.75
369.10	1065.65
369.48	1069.62
369.85	1074.77
370.22	1074.07
370.59	1068.69
370.96	1066.35
371.33	1054.65
371.70	1057.45
372.07	1062.60
372.44	1071.73
372.81	1073.60
373.18	1086.48
373.55	1091.63
373.93	1080.16
374.30	1078.05
374.67	1075.94
375.04	1072.43
375.41	1072.20
375.78	1076.18
376.15	1082.26
376.52	1082.50
376.89	1081.33
377.26	1079.22
377.63	1081.33
378.00	1066.35
378.37	1061.20
378.74	1068.92
379.11	1064.01
379.48	1070.33
379.85	1082.26
380.22	1091.16
380.59	1080.16
380.96	1079.92
381.33	1074.54
381.70	1074.54
382.07	1080.16
382.44	1082.73
382.81	1091.86
383.18	1096.07
383.55	1091.16
383.92	1076.41
384.29	1077.11
384.66	1062.37
385.03	1053.24
385.40	1059.33
385.77	1057.22
386.14	1060.50
386.51	1066.35
386.88	1064.48
387.25	1066.58
387.62	1068.45
387.99	1060.26
388.36	1059.56
388.73	1056.52
389.10	1048.79
389.46	1048.33
389.83	1062.37
390.20	1064.48
390.57	1077.35
390.94	1085.07
391.31	1093.26
391.68	1075.71
392.05	1066.82
392.42	1060.73
392.79	1056.28
393.16	1059.33
393.53	1064.94
393.89	1076.18
394.26	1076.41
394.63	1079.92
395.00	1071.73
395.37	1082.97
395.74	1078.52
396.11	1085.31
396.48	1084.14
396.84	1083.43
397.21	1075.24
397.58	1072.67
397.95	1066.58
398.32	1060.73
398.69	1065.88
399.06	1064.01
399.42	1072.20
399.79	1067.52
400.16	1075.01
400.53	1071.73
400.90	1073.60
401.27	1079.69
401.64	1078.05
402.00	1076.65
402.37	1077.35
402.74	1080.63
403.11	1076.41
403.48	1086.01
403.84	1090.92
404.21	1089.52
404.58	1090.22
404.95	1089.05
405.32	1085.31
405.68	1070.80
406.05	1062.84
406.42	1060.26
406.79	1068.22
407.16	1061.43
407.52	1069.86
407.89	1082.73
408.26	1085.31
408.63	1076.88
408.99	1081.09
409.36	1085.54
409.73	1084.37
410.10	1075.94
410.47	1082.03
410.83	1080.39
411.20	1069.86
411.57	1073.37
411.94	1079.46
412.30	1067.28
412.67	1071.73
413.04	1079.92
413.40	1082.03
413.77	1088.82
414.14	1099.35
414.51	1104.03
414.87	1105.44
415.24	1085.07
415.61	1073.84
415.97	1066.82
416.34	1055.58
416.71	1046.69
417.08	1055.11
417.44	1060.03
417.81	1058.16
418.18	1071.73
418.54	1073.14
418.91	1072.43
419.28	1071.03
419.64	1074.07
420.01	1067.28
420.38	1068.45
420.74	1066.58
421.11	1065.41
421.48	1067.52
421.84	1061.20
422.21	1065.18
422.58	1072.20
422.94	1079.22
423.31	1073.14
423.68	1081.09
424.04	1077.82
424.41	1084.60
424.77	1078.52
425.14	1089.75
425.51	1094.67
425.87	1093.26
426.24	1081.09
426.61	1074.77
426.97	1082.73
427.34	1082.26
427.70	1086.24
428.07	1094.43
428.44	1100.52
428.80	1086.01
429.17	1074.31
429.53	1070.09
429.90	1064.24
430.27	1069.86
430.63	1066.58
431.00	1066.82
431.36	1070.56
431.73	1076.41
432.09	1072.90
432.46	1076.88
432.83	1089.05
433.19	1094.43
433.56	1085.31
433.92	1082.97
434.29	1083.90
434.65	1080.86
435.02	1074.54
435.38	1074.54
435.75	1071.26
436.11	1067.75
436.48	1056.99
436.84	1064.94
437.21	1071.97
437.57	1068.22
437.94	1081.56
438.30	1095.37
438.67	1093.26
439.03	1084.37
439.40	1094.20
439.76	1085.07
440.13	1077.11
440.49	1078.99
440.86	1088.35
441.22	1086.71
441.59	1078.28
441.95	1082.26
442.32	1070.09
442.68	1077.82
443.05	1081.56
443.41	1084.37
443.78	1082.97
444.14	1094.90
444.51	1093.50
444.87	1087.18
445.24	1086.24
445.60	1079.92
445.96	1076.18
446.33	1067.28
446.69	1071.97
447.06	1085.77
447.42	1099.12
447.79	1095.60
448.15	1101.22
448.51	1098.18
448.88	1082.26
449.24	1075.01
449.61	1086.01
449.97	1079.92
450.33	1088.82
450.70	1097.71
451.06	1095.84
451.43	1097.24
451.79	1109.65
452.15	1099.12
452.52	1095.84
452.88	1096.07
453.24	1084.37
453.61	1066.82
453.97	1067.05
454.34	1070.56
454.70	1079.92
455.06	1083.20
455.43	1087.18
455.79	1094.20
456.15	1094.90
456.52	1094.20
456.88	1090.92
457.24	1085.07
457.61	1083.90
457.97	1079.69
458.33	1075.01
458.70	1074.54
459.06	1070.80
459.42	1067.28
459.79	1063.54
460.15	1065.41
460.51	1066.58
460.88	1067.75
461.24	1068.92
461.60	1067.28
461.96	1057.92
462.33	1056.05
462.69	1063.31
463.05	1054.18
463.42	1069.16
463.78	1075.48
464.14	1078.52
464.50	1079.46
464.87	1086.48
465.23	1080.63
465.59	1074.54
465.95	1070.09
466.32	1077.35
466.68	1082.73
467.04	1076.88
467.40	1075.24
467.77	1074.54
468.13	1073.37
468.49	1067.28
468.85	1066.35
469.22	1069.39
469.58	1076.41
469.94	1069.86
470.30	1071.26
470.66	1076.88
471.03	1080.63
471.39	1077.82
471.75	1089.29
472.11	1082.03
472.47	1076.65
472.84	1068.22
473.20	1065.88
473.56	1060.96
473.92	1066.11
474.28	1075.71
474.65	1082.73
475.01	1088.58
475.37	1082.50
475.73	1080.63
476.09	1081.80
476.45	1073.14
476.81	1079.46
477.18	1080.39
477.54	1091.63
477.90	1086.71
478.26	1095.37
478.62	1090.22
478.98	1095.14
479.34	1085.31
479.71	1079.92
480.07	1075.71
480.43	1078.75
480.79	1074.77
481.15	1079.22
481.51	1084.37
481.87	1095.37
482.23	1087.18
482.59	1088.82
482.96	1090.22
483.32	1083.43
483.68	1074.07
484.04	1080.86
484.40	1075.01
484.76	1066.82
485.12	1073.37
485.48	1077.11
485.84	1067.99
486.20	1071.50
486.56	1072.90
486.92	1064.71
487.28	1060.73
487.64	1064.94
488.00	1068.69
488.37	1075.48
488.73	1080.39
489.09	1080.86
489.45	1090.92
489.81	1086.71
490.17	1082.50
490.53	1090.22
490.89	1097.71
491.25	1086.01
491.61	1081.09
491.97	1081.33
492.33	1073.37
492.69	1064.71
493.05	1063.77
493.41	1066.35
493.77	1063.77
494.13	1057.45
494.49	1057.22
494.85	1064.24
495.21	1069.39
495.57	1074.31
495.93	1080.39
496.29	1087.65
496.64	1082.26
497.00	1078.99
497.36	1069.39
497.72	1078.05
498.08	1077.11
498.44	1076.41
498.80	1080.63
499.16	1092.33
499.52	1082.50
499.88	1081.56
500.24	1087.88
500.60	1082.73
500.96	1096.31
501.32	1102.39
501.68	1102.16
502.03	1092.80
502.39	1101.92
502.75	1083.67
503.11	1087.88
503.47	1087.18
503.83	1092.80
504.19	1089.99
504.55	1090.22
504.91	1088.35
505.26	1090.22
505.62	1090.22
505.98	1077.11
506.34	1075.24
506.70	1063.07
507.06	1065.88
507.42	1074.07
507.78	1085.07
508.13	1089.99
508.49	1104.97
508.85	1111.29
509.21	1102.16
509.57	1106.14
509.93	1106.14
510.28	1097.48
510.64	1086.71
511.00	1089.52
511.36	1085.77
511.72	1092.33
512.07	1097.95
512.43	1098.65
512.79	1088.12
513.15	1090.69
513.51	1084.37
513.86	1085.77
514.22	1088.12
514.58	1097.01
514.94	1094.43
515.30	1090.22
515.65	1086.48
516.01	1080.86
516.37	1087.18
516.73	1093.73
517.08	1094.67
517.44	1095.60
517.80	1095.84
518.16	1084.84
518.51	1083.67
518.87	1086.71
519.23	1092.33
519.59	1098.88
519.94	1097.48
520.30	1089.29
520.66	1090.22
521.01	1084.14
521.37	1084.84
521.73	1095.37
522.09	1099.12
522.44	1108.48
522.80	1110.58
523.16	1104.97
523.51	1104.26
523.87	1108.48
524.23	1097.24
524.58	1100.05
524.94	1099.82
525.30	1096.54
525.65	1086.24
526.01	1088.35
526.37	1083.90
526.72	1079.92
527.08	1081.80
527.44	1089.99
527.79	1082.73
528.15	1078.99
528.51	1091.63
528.86	1088.82
529.22	1082.50
529.58	1089.52
529.93	1092.80
530.29	1087.88
530.65	1089.75
531.00	1095.84
531.36	1102.16
531.71	1102.16
532.07	1099.82
532.43	1097.24
532.78	1104.73
533.14	1099.82
533.49	1087.65
533.85	1093.50
534.21	1088.35
534.56	1084.14
534.92	1083.67
535.27	1103.80
535.63	1103.80
535.98	1105.20
536.34	1096.07
536.69	1104.26
537.05	1089.99
537.41	1089.29
537.76	1103.09
538.12	1111.05
538.47	1098.18
538.83	1099.35
539.18	1102.16
539.54	1089.05
539.89	1087.65
540.25	1092.56
540.60	1105.90
540.96	1096.07
541.31	1105.67
541.67	1107.07
542.02	1107.54
542.38	1105.90
542.73	1111.29
543.09	1104.50
543.44	1094.43
543.80	1092.80
544.15	1082.97
544.51	1074.31
544.86	1084.37
545.22	1091.86
545.57	1085.31
545.93	1087.65
546.28	1095.14
546.64	1091.63
546.99	1099.58
547.35	1106.37
547.70	1104.97
548.05	1101.22
548.41	1096.78
548.76	1082.26
549.12	1073.84
549.47	1066.58
549.83	1071.50
550.18	1072.90
550.53	1073.84
550.89	1077.11
551.24	1085.77
551.60	1089.75
551.95	1095.14
552.30	1104.50
552.66	1106.37
553.01	1099.82
553.37	1104.50
553.72	1100.75
554.07	1090.22
554.43	1096.54
554.78	1097.71
555.13	1079.46
555.49	1082.73
555.84	1086.71
556.19	1089.05
556.55	1091.86
556.90	1097.95
557.26	1091.39
557.61	1104.73
557.96	1091.63
558.32	1090.22
558.67	1088.58
559.02	1096.07
559.37	1090.92
559.73	1097.71
560.08	1108.24
560.43	1112.92
560.79	1112.92
561.14	1103.80
561.49	1102.86
561.85	1088.12
562.20	1082.26
562.55	1069.86
562.90	1079.69
563.26	1086.48
563.61	1089.52
563.96	1094.90
564.32	1098.65
564.67	1092.56
565.02	1089.52
565.37	1095.60
565.73	1092.56
566.08	1085.54
566.43	1075.01
566.78	1074.54
567.14	1078.99
567.49	1081.33
567.84	1088.12
568.19	1088.82
568.54	1079.92
568.90	1068.92
569.25	1070.33
569.60	1074.31
569.95	1077.35
570.31	1077.58
570.66	1086.48
571.01	1075.71
571.36	1070.09
571.71	1067.75
572.06	1067.28
572.42	1059.09
572.77	1071.73
573.12	1076.65
573.47	1082.03
573.82	1086.48
574.18	1096.54
574.53	1094.90
574.88	1092.09
575.23	1095.60
575.58	1101.92
575.93	1089.05
576.28	1092.33
576.64	1092.56
576.99	1084.84
577.34	1079.22
577.69	1081.33
578.04	1085.31
578.39	1091.39
578.74	1091.86
579.09	1097.95
579.44	1095.37
579.80	1081.80
580.15	1074.77
580.50	1084.60
580.85	1076.41
581.20	1082.97
581.55	1089.05
581.90	1095.14
582.25	1090.92
582.60	1083.43
582.95	1081.09
583.30	1091.63
583.65	1082.73
584.00	1084.37
584.35	1088.35
584.71	1092.09
585.06	1077.35
585.41	1089.29
585.76	1088.35
586.11	1092.80
586.46	1090.22
586.81	1100.99
587.16	1085.31
587.51	1081.56
587.86	1075.48
588.21	1077.35
588.56	1067.28
588.91	1073.60
589.26	1075.71
589.61	1094.20
589.96	1086.48
590.31	1084.37
590.66	1089.99
591.01	1089.05
591.36	1081.80
591.71	1089.29
592.06	1086.94
592.41	1075.24
592.76	1076.88
593.10	1067.75
593.45	1063.31
593.80	1065.65
594.15	1073.37
594.50	1067.99
594.85	1066.82
595.20	1066.35
595.55	1060.73
595.90	1058.16
596.25	1055.58
596.60	1051.60
596.95	1058.16
597.30	1075.01
597.64	1120.41
597.99	1121.82
598.34	1130.24
598.69	1127.20
599.04	1122.05
599.39	1075.24
599.74	1086.94
600.09	1087.18
600.44	1090.22
600.78	1096.07
601.13	1104.97
601.48	1096.31
601.83	1103.09
602.18	1102.16
602.53	1088.12
602.88	1071.73
603.22	1067.99
603.57	1062.14
603.92	1062.14
604.27	1066.58
604.62	1085.54
604.97	1093.50
605.31	1095.60
605.66	1100.52
606.01	1109.88
606.36	1093.97
606.71	1098.88
607.05	1095.14
607.40	1086.71
607.75	1077.58
608.10	1080.63
608.44	1080.16
608.79	1082.97
609.14	1090.69
609.49	1101.22
609.84	1113.16
610.18	1109.88
610.53	1108.01
610.88	1108.71
611.23	1105.20
611.57	1095.60
611.92	1084.37
612.27	1078.05
612.62	1086.94
612.96	1080.16
613.31	1078.99
613.66	1087.41
614.00	1089.52
614.35	1078.05
614.70	1077.35
615.05	1083.90
615.39	1080.63
615.74	1079.22
616.09	1071.26
616.43	1069.86
616.78	1064.71
617.13	1066.11
617.47	1070.33
617.82	1082.26
618.17	1083.90
618.51	1082.50
618.86	1082.73
619.21	1089.52
619.55	1092.09
619.90	1087.88
620.25	1093.03
620.59	1095.84
620.94	1097.01
621.29	1081.56
621.63	1083.67
621.98	1084.37
622.32	1088.35
622.67	1081.56
623.02	1079.69
623.36	1080.63
623.71	1078.99
624.05	1081.09
624.40	1084.84
624.75	1094.20
625.09	1098.41
625.44	1092.09
625.78	1086.71
626.13	1084.60
626.48	1089.75
626.82	1086.48
627.17	1099.35
627.51	1109.65
627.86	1096.78
628.20	1085.31
628.55	1087.18
628.89	1070.09
629.24	1059.56
629.58	1070.33
629.93	1071.97
630.28	1073.84
630.62	1085.77
630.97	1084.84
631.31	1091.16
631.66	1101.69
632.00	1093.26
632.35	1088.35
632.69	1086.71
633.04	1083.20
633.38	1082.03
633.73	1096.31
634.07	1101.46
634.42	1099.35
634.76	1099.35
635.11	1087.88
635.45	1074.07
635.79	1075.01
636.14	1082.26
636.48	1071.73
636.83	1082.73
637.17	1082.26
637.52	1084.37
637.86	1080.16
638.21	1084.60
638.55	1079.22
638.89	1088.12
639.24	1081.09
639.58	1084.60
639.93	1087.88
640.27	1084.84
640.61	1080.63
640.96	1077.58
641.30	1076.65
641.65	1090.46
641.99	1100.29
642.33	1101.46
642.68	1097.01
643.02	1101.69
643.37	1093.50
643.71	1084.84
644.05	1083.43
644.40	1094.90
644.74	1087.41
645.08	1083.67
645.43	1078.99
645.77	1081.09
646.11	1069.62
646.46	1077.58
646.80	1076.18
647.14	1090.22
647.49	1086.48
647.83	1091.86
648.17	1073.60
648.52	1081.09
648.86	1076.65
649.20	1087.18
649.55	1084.14
649.89	1097.24
650.23	1095.14
650.57	1092.80
650.92	1090.46
651.26	1096.07
651.60	1095.60
651.95	1096.07
652.29	1094.67
652.63	1089.99
652.97	1086.71
653.32	1085.77
653.66	1089.99
654.00	1084.37
654.34	1079.69
654.69	1088.12
655.03	1090.69
655.37	1084.60
655.71	1092.33
656.05	1098.65
656.40	1096.31
656.74	1081.80
657.08	1081.56
657.42	1080.63
657.76	1081.80
658.11	1080.86
658.45	1089.29
658.79	1087.65
659.13	1085.31
659.47	1081.80
659.82	1077.58
660.16	1075.94
660.50	1073.37
660.84	1066.58
661.18	1058.39
661.52	1062.84
661.87	1058.86
662.21	1061.20
662.55	1075.94
662.89	1072.90
663.23	1063.31
663.57	1068.22
663.91	1068.22
664.25	1059.79
664.60	1069.86
664.94	1074.07
665.28	1074.77
665.62	1081.56
665.96	1078.52
666.30	1078.05
666.64	1079.22
666.98	1073.14
667.32	1069.16
667.66	1077.11
668.01	1086.71
668.35	1082.03
668.69	1088.58
669.03	1076.41
669.37	1072.20
669.71	1065.41
670.05	1071.73
670.39	1076.65
670.73	1092.09
671.07	1095.14
671.41	1093.73
671.75	1086.01
672.09	1081.56
672.43	1079.69
672.77	1072.90
673.11	1061.43
673.45	1068.45
673.79	1085.07
674.13	1069.16
674.47	1069.62
674.81	1081.33
675.15	1075.48
675.49	1064.24
675.83	1073.37
676.17	1077.35
676.51	1075.01
676.85	1084.37
677.19	1083.43
677.53	1089.05
677.87	1079.22
678.21	1086.01
678.55	1079.69
678.89	1070.80
679.23	1075.71
679.57	1088.35
679.90	1083.20
680.24	1089.52
680.58	1093.03
680.92	1088.58
681.26	1082.26
681.60	1082.26
681.94	1084.14
682.28	1085.54
682.62	1081.33
682.96	1086.94
683.29	1083.43
683.63	1085.54
683.97	1084.37
684.31	1076.18
684.65	1082.97
684.99	1074.54
685.33	1066.58
685.67	1070.80
686.00	1074.77
686.34	1061.20
686.68	1070.56
687.02	1077.58
687.36	1073.14
687.70	1076.18
688.03	1078.28
688.37	1078.75
688.71	1074.77
689.05	1068.92
689.39	1064.48
689.72	1067.99
690.06	1070.80
690.40	1075.94
690.74	1084.60
691.08	1088.82
691.41	1094.67
691.75	1086.01
692.09	1075.01
692.43	1078.52
692.76	1080.16
693.10	1080.39
693.44	1091.63
693.78	1083.43
694.11	1081.80
694.45	1073.37
694.79	1062.60
695.13	1062.84
695.46	1079.22
695.80	1072.20
696.14	1089.29
696.48	1097.24
696.81	1098.18
697.15	1089.52
697.49	1100.52
697.82	1088.82
698.16	1082.03
698.50	1083.67
698.83	1088.35
699.17	1078.05
699.51	1075.01
699.84	1084.60
700.18	1083.90
700.52	1077.58
700.85	1081.56
701.19	1082.50
701.53	1071.03
701.86	1065.65
702.20	1072.90
702.54	1077.35
702.87	1077.35
703.21	1081.80
703.55	1086.01
703.88	1099.12
704.22	1087.88
704.55	1097.71
704.89	1094.90
705.23	1087.41
705.56	1065.88
705.90	1078.75
706.23	1079.92
706.57	1079.69
706.91	1088.12
707.24	1083.20
707.58	1083.43
707.91	1074.31
708.25	1074.54
708.58	1070.56
708.92	1074.77
709.26	1057.92
709.59	1069.62
709.93	1068.45
710.26	1066.82
710.60	1075.24
710.93	1086.94
711.27	1083.67
711.60	1086.94
711.94	1093.50
712.27	1091.63
712.61	1087.41
712.94	1082.50
713.28	1086.01
713.61	1079.22
713.95	1078.75
714.28	1077.58
714.62	1069.86
714.95	1066.35
715.29	1071.97
715.62	1068.22
715.96	1072.43
716.29	1078.28
716.63	1082.26
716.96	1079.22
717.29	1088.35
717.63	1095.60
717.96	1101.69
718.30	1099.12
718.63	1092.09
718.97	1094.43
719.30	1084.60
719.63	1082.97
719.97	1080.16
720.30	1082.97
720.64	1082.03
720.97	1089.29
721.30	1084.84
721.64	1083.43
721.97	1087.65
722.31	1084.14
722.64	1085.54
722.97	1088.35
723.31	1095.60
723.64	1100.75
723.97	1102.39
724.31	1097.71
724.64	1098.88
724.98	1096.07
725.31	1089.75
725.64	1090.22
725.98	1083.90
726.31	1097.95
726.64	1097.24
726.97	1102.63
727.31	1095.84
727.64	1097.95
727.97	1083.90
728.31	1088.82
728.64	1085.77
728.97	1092.80
729.31	1082.97
729.64	1080.39
729.97	1080.86
730.30	1083.90
730.64	1083.67
730.97	1091.86
731.30	1085.54
731.63	1075.24
731.97	1074.07
732.30	1069.16
732.63	1080.39
732.96	1088.58
733.30	1083.90
733.63	1082.50
733.96	1083.20
734.29	1077.82
734.63	1080.39
734.96	1097.71
735.29	1088.12
735.62	1101.46
735.95	1096.31
736.29	1098.18
736.62	1086.24
736.95	1093.03
737.28	1079.69
737.61	1093.73
737.94	1090.22
738.28	1091.16
738.61	1097.01
738.94	1100.52
739.27	1086.94
739.60	1088.12
739.93	1090.92
740.27	1086.48
740.60	1085.77
740.93	1085.07
741.26	1090.22
741.59	1089.99
741.92	1092.33
742.25	1089.05
742.58	1094.43
742.91	1085.07
743.25	1083.90
743.58	1080.39
743.91	1075.94
744.24	1076.41
744.57	1074.31
744.90	1081.56
745.23	1076.41
745.56	1079.69
745.89	1076.65
746.22	1083.20
746.55	1075.71
746.88	1082.03
747.21	1073.37
747.54	1077.11
747.87	1068.45
748.20	1069.16
748.53	1069.16
748.87	1077.11
749.20	1068.22
749.53	1072.43
749.86	1074.07
750.19	1070.56
750.52	1081.09
750.85	1097.71
751.18	1104.97
751.51	1109.18
751.84	1102.16
752.16	1100.52
752.49	1098.18
752.82	1088.58
753.15	1087.18
753.48	1094.67
753.81	1093.26
754.14	1085.77
754.47	1085.77
754.80	1089.99
755.13	1094.43
755.46	1091.39
755.79	1090.22
756.12	1098.41
756.45	1093.73
756.78	1098.88
757.11	1097.24
757.43	1096.54
757.76	1090.69
758.09	1086.94
758.42	1080.86
758.75	1081.80
759.08	1078.52
759.41	1083.20
759.74	1089.05
760.07	1088.35
760.39	1074.77
760.72	1078.28
761.05	1071.50
761.38	1071.03
761.71	1077.35
762.04	1082.97
762.36	1085.54
762.69	1078.75
763.02	1073.60
763.35	1060.26
763.68	1071.73
764.01	1073.60
764.33	1076.88
764.66	1067.52
764.99	1078.52
765.32	1081.33
765.65	1073.84
765.97	1082.03
766.30	1092.09
766.63	1080.86
766.96	1071.73
767.28	1080.63
767.61	1075.94
767.94	1076.18
768.27	1078.75
768.59	1083.20
768.92	1084.60
769.25	1089.99
769.58	1080.63
769.90	1082.26
770.23	1088.82
770.56	1080.39
770.89	1089.05
771.21	1095.84
771.54	1096.54
771.87	1088.12
772.19	1094.20
772.52	1080.86
772.85	1081.80
773.17	1073.84
773.50	1071.73
773.83	1078.52
774.15	1072.20
774.48	1068.69
774.81	1087.41
775.13	1092.80
775.46	1089.99
775.79	1094.20
776.11	1099.58
776.44	1078.52
776.77	1072.20
777.09	1070.56
777.42	1067.75
777.74	1061.43
778.07	1071.73
778.40	1067.99
778.72	1058.16
779.05	1071.03
779.37	1079.22
779.70	1089.99
780.03	1104.03
780.35	1104.03
780.68	1097.24
781.00	1090.92
781.33	1081.33
781.65	1073.37
781.98	1078.28
782.31	1083.67
782.63	1082.03
782.96	1086.48
783.28	1095.60
783.61	1093.50
783.93	1085.54
784.26	1095.37
784.58	1088.12
784.91	1078.05
785.23	1071.97
785.56	1067.28
785.88	1069.62
786.21	1065.18
786.53	1064.94
786.86	1071.73
787.18	1085.07
787.51	1087.65
787.83	1091.39
788.16	1088.58
788.48	1088.35
788.81	1079.92
789.13	1071.97
789.46	1081.56
789.78	1085.77
790.10	1074.31
790.43	1077.35
790.75	1080.63
791.08	1070.56
791.40	1074.54
791.73	1092.56
792.05	1097.71
792.37	1089.05
792.70	1084.60
793.02	1083.90
793.35	1080.39
793.67	1084.14
793.99	1083.90
794.32	1089.29
794.64	1085.31
794.96	1084.14
795.29	1080.39
795.61	1081.80
795.93	1092.56
796.26	1090.69
796.58	1092.09
796.91	1087.88
797.23	1089.05
797.55	1082.97
797.87	1085.77
798.20	1081.09
798.52	1079.46
798.84	1084.37
799.17	1080.39
799.49	1080.86
799.81	1084.14
800.14	1072.90
800.46	1063.54
800.78	1065.65
801.10	1062.14
801.43	1060.73
801.75	1072.90
802.07	1075.24
802.40	1073.84
802.72	1075.94
803.04	1078.05
803.36	1079.46
803.69	1086.71
804.01	1084.60
804.33	1083.90
804.65	1073.60
804.97	1078.52
805.30	1077.58
805.62	1080.16
805.94	1082.26
806.26	1097.01
806.58	1087.65
806.91	1074.31
807.23	1073.14
807.55	1076.88
807.87	1067.05
808.19	1072.67
808.52	1084.37
808.84	1085.07
809.16	1081.33
809.48	1089.29
809.80	1081.33
810.12	1080.39
810.44	1083.43
810.77	1095.37
811.09	1091.39
811.41	1098.88
811.73	1100.05
812.05	1100.29
812.37	1096.54
812.69	1104.03
813.01	1100.75
813.33	1102.16
813.66	1104.97
813.98	1089.99
814.30	1092.09
814.62	1096.78
814.94	1090.46
815.26	1091.86
815.58	1094.43
815.90	1092.33
816.22	1082.73
816.54	1082.50
816.86	1072.43
817.18	1079.46
817.50	1074.07
817.82	1078.75
818.14	1086.71
818.46	1080.39
818.78	1072.67
819.10	1079.69
819.42	1073.60
819.74	1069.62
820.06	1079.69
820.38	1079.92
820.70	1065.18
821.02	1075.71
821.34	1071.50
821.66	1055.82
821.98	1064.01
822.30	1060.96
822.62	1066.11
822.94	1069.16
823.26	1081.09
823.58	1075.71
823.90	1080.63
824.22	1079.69
824.54	1077.11
824.86	1074.77
825.18	1075.01
825.50	1065.65
825.81	1055.58
826.13	1055.82
826.45	1064.48
826.77	1067.75
827.09	1083.90
827.41	1087.88
827.73	1088.82
828.05	1094.20
828.36	1087.88
828.68	1079.22
829.00	1082.73
829.32	1080.86
829.64	1073.14
829.96	1082.73
830.28	1081.33
830.59	1075.01
830.91	1075.24
831.23	1071.26
831.55	1064.71
831.87	1064.94
832.19	1056.99
832.50	1068.45
832.82	1075.01
833.14	1076.65
833.46	1083.90
833.78	1090.22
834.09	1086.94
834.41	1082.73
834.73	1085.54
835.05	1084.84
835.36	1091.86
835.68	1095.60
836.00	1100.05
836.32	1095.84
836.63	1094.43
836.95	1096.78
837.27	1087.88
837.59	1085.07
837.90	1085.07
838.22	1077.82
838.54	1076.41
838.85	1079.46
839.17	1080.39
839.49	1082.97
839.80	1090.22
840.12	1078.75
840.44	1081.80
840.76	1079.92
841.07	1072.90
841.39	1077.11
841.71	1086.48
842.02	1080.86
842.34	1082.73
842.65	1090.92
842.97	1086.01
843.29	1087.88
843.60	1081.33
843.92	1082.73
844.24	1083.67
844.55	1087.65
844.87	1088.82
845.18	1094.43
845.50	1089.99
845.82	1084.37
846.13	1078.75
846.45	1076.65
846.76	1075.94
847.08	1067.28
847.40	1058.62
847.71	1063.54
848.03	1053.71
848.34	1054.65
848.66	1071.73
848.97	1085.54
849.29	1093.03
849.60	1094.67
849.92	1093.50
850.24	1089.05
850.55	1084.84
850.87	1075.01
851.18	1077.11
851.50	1069.86
851.81	1067.75
852.13	1075.24
852.44	1073.60
852.76	1075.94
853.07	1095.84
853.39	1087.88
853.70	1082.26
854.01	1089.29
854.33	1084.84
854.64	1068.45
854.96	1077.82
855.27	1081.33
855.59	1080.16
855.90	1079.92
856.22	1084.14
856.53	1092.56
856.84	1089.75
857.16	1086.71
857.47	1083.43
857.79	1082.03
858.10	1072.20
858.41	1069.16
858.73	1072.67
859.04	1081.33
859.36	1096.54
859.67	1089.99
859.98	1090.69
860.30	1089.29
860.61	1093.73
860.92	1082.03
861.24	1083.67
861.55	1078.52
861.87	1071.97
862.18	1069.39
862.49	1079.92
862.81	1088.58
863.12	1100.52
863.43	1103.33
863.74	1092.80
864.06	1084.60
864.37	1081.09
864.68	1076.65
865.00	1075.71
865.31	1088.35
865.62	1088.58
865.94	1084.60
866.25	1076.41
866.56	1077.82
866.87	1071.26
867.19	1075.24
867.50	1074.77
867.81	1079.92
868.12	1074.77
868.44	1068.69
868.75	1061.43
869.06	1066.35
869.37	1068.45
869.68	1074.31
870.00	1083.90
870.31	1092.09
870.62	1093.03
870.93	1090.46
871.24	1083.67
871.56	1076.65
871.87	1075.24
872.18	1064.24
872.49	1063.77
872.80	1071.26
873.12	1079.22
873.43	1074.07
873.74	1085.07
874.05	1091.39
874.36	1086.94
874.67	1092.56
874.98	1093.50
875.29	1092.56
875.61	1083.67
875.92	1085.54
876.23	1073.14
876.54	1068.92
876.85	1075.24
877.16	1073.14
877.47	1076.65
877.78	1077.82
878.09	1080.63
878.40	1073.60
878.72	1080.63
879.03	1076.18
879.34	1079.46
879.65	1082.26
879.96	1086.94
880.27	1089.05
880.58	1093.97
880.89	1089.75
881.20	1091.39
881.51	1087.88
881.82	1081.80
882.13	1082.50
882.44	1088.35
882.75	1088.82
883.06	1088.58
883.37	1089.52
883.68	1090.92
883.99	1084.60
884.30	1078.75
884.61	1085.31
884.92	1079.92
885.23	1081.33
885.54	1085.77
885.85	1086.24
886.16	1066.35
886.47	1079.46
886.78	1079.46
887.08	1085.54
887.39	1081.80
887.70	1092.33
888.01	1091.39
888.32	1083.43
888.63	1075.94
888.94	1083.67
889.25	1089.05
889.56	1083.43
889.87	1080.16
890.17	1078.05
890.48	1076.41
890.79	1076.65
891.10	1077.58
891.41	1077.58
891.72	1076.88
892.03	1065.18
892.34	1054.88
892.64	1060.50
892.95	1063.31
893.26	1070.33
893.57	1081.56
893.88	1099.35
894.18	1093.50
894.49	1101.92
894.80	1103.33
895.11	1097.01
895.42	1090.22
895.72	1086.71
896.03	1085.07
896.34	1075.48
896.65	1071.97
896.96	1067.52
897.26	1065.65
897.57	1060.73
897.88	1066.35
898.19	1067.52
898.49	1068.45
898.80	1076.88
899.11	1084.14
899.41	1072.90
899.72	1081.56
900.03	1079.69
900.34	1081.09
900.64	1066.82
900.95	1089.05
901.26	1090.22
901.56	1094.67
901.87	1092.09
902.18	1102.39
902.48	1082.73
902.79	1073.37
903.10	1074.07
903.40	1067.05
903.71	1059.33
904.02	1065.41
904.32	1070.80
904.63	1068.45
904.94	1078.52
905.24	1094.43
905.55	1093.73
905.85	1089.75
906.16	1093.03
906.47	1093.26
906.77	1086.24
907.08	1084.37
907.38	1082.26
907.69	1075.71
908.00	1079.22
908.30	1078.28
908.61	1089.29
908.91	1099.12
909.22	1103.33
909.52	1087.65
909.83	1093.73
910.14	1088.58
910.44	1088.82
910.75	1076.41
911.05	1080.16
911.36	1072.20
911.66	1075.48
911.97	1072.90
912.27	1072.67
912.58	1071.03
912.88	1068.45
913.19	1069.16
913.49	1075.24
913.80	1078.75
914.10	1080.39
914.41	1077.11
914.71	1077.11
915.01	1074.07
915.32	1074.07
915.62	1080.63
915.93	1089.99
916.23	1081.33
916.54	1070.80
916.84	1080.63
917.15	1079.69
917.45	1068.92
917.75	1074.07
918.06	1082.73
918.36	1071.73
918.67	1073.14
918.97	1078.99
919.27	1077.11
919.58	1082.03
919.88	1087.88
920.18	1079.92
920.49	1080.39
920.79	1079.69
921.10	1062.60
921.40	1073.60
921.70	1069.62
922.01	1066.82
922.31	1077.58
922.61	1085.54
922.92	1077.58
923.22	1082.73
923.52	1089.75
923.82	1074.77
924.13	1081.80
924.43	1090.69
924.73	1091.39
925.04	1085.77
925.34	1088.35
925.64	1086.94
925.94	1072.43
926.25	1069.62
926.55	1076.88
926.85	1069.16
927.15	1072.20
927.46	1085.31
927.76	1093.03
928.06	1089.29
928.36	1100.29
928.67	1097.48
928.97	1088.35
929.27	1086.48
929.57	1078.28
929.87	1074.54
930.18	1068.22
930.48	1077.11
930.78	1075.01
931.08	1082.73
931.38	1087.88
931.69	1090.69
931.99	1082.73
932.29	1085.54
932.59	1080.39
932.89	1078.05
933.19	1075.01
933.49	1073.60
933.80	1072.90
934.10	1080.39
934.40	1076.18
934.70	1075.48
935.00	1082.50
935.30	1089.75
935.60	1089.05
935.90	1084.60
936.20	1089.75
936.50	1082.50
936.81	1068.69
937.11	1059.33
937.41	1075.48
937.71	1072.67
938.01	1074.54
938.31	1089.52
938.61	1099.82
938.91	1089.52
939.21	1092.56
939.51	1082.97
939.81	1070.80
940.11	1066.35
940.41	1072.90
940.71	1065.88
941.01	1063.77
941.31	1067.75
941.61	1083.20
941.91	1073.37
942.21	1074.77
942.51	1082.97
942.81	1080.63
943.11	1065.65
943.41	1067.52
943.71	1069.62
944.01	1066.82
944.31	1063.77
944.61	1060.26
944.90	1069.62
945.20	1068.22
945.50	1067.05
945.80	1071.50
946.10	1074.31
946.40	1069.39
946.70	1063.31
947.00	1075.94
947.30	1087.65
947.60	1076.88
947.89	1075.48
948.19	1082.03
948.49	1079.46
948.79	1064.24
949.09	1077.11
949.39	1088.35
949.69	1083.20
949.98	1074.07
950.28	1075.94
950.58	1072.67
950.88	1061.20
951.18	1063.77
951.48	1070.33
951.77	1073.60
952.07	1071.50
952.37	1081.80
952.67	1084.14
952.97	1082.97
953.26	1087.18
953.56	1099.82
953.86	1089.52
954.16	1097.01
954.45	1096.54
954.75	1082.73
955.05	1062.84
955.35	1062.14
955.64	1056.75
955.94	1060.03
956.24	1065.41
956.54	1080.39
956.83	1083.20
957.13	1081.80
957.43	1082.73
957.72	1086.71
958.02	1079.69
958.32	1084.37
958.61	1083.90
958.91	1076.18
959.21	1071.26
959.50	1076.65
959.80	1070.56
960.10	1071.50
960.39	1073.84
960.69	1077.58
960.99	1067.99
961.28	1067.52
961.58	1073.14
961.87	1072.20
962.17	1066.35
962.47	1067.75
962.76	1072.20
963.06	1062.84
963.36	1065.65
963.65	1076.65
963.95	1076.18
964.24	1071.73
964.54	1072.43
964.83	1072.67
965.13	1064.24
965.42	1071.73
965.72	1074.54
966.02	1086.94
966.31	1086.24
966.61	1089.52
966.90	1083.90
967.20	1079.69
967.49	1085.07
967.79	1088.82
968.08	1093.73
968.38	1100.05
968.67	1098.41
968.97	1086.71
969.26	1088.58
969.56	1089.52
969.85	1087.88
970.15	1097.71
970.44	1098.18
970.74	1089.52
971.03	1079.46
971.32	1076.41
971.62	1074.77
971.91	1073.60
972.21	1081.09
972.50	1081.09
972.80	1081.33
973.09	1079.69
973.38	1075.71
973.68	1072.90
973.97	1077.11
974.27	1086.01
974.56	1081.33
974.85	1097.01
975.15	1101.92
975.44	1110.82
975.73	1103.80
976.03	1110.58
976.32	1091.86
976.61	1096.78
976.91	1101.46
977.20	1097.48
977.49	1087.88
977.79	1087.88
978.08	1069.86
978.37	1062.60
978.67	1067.05
978.96	1064.24
979.25	1076.18
979.55	1083.43
979.84	1070.33
980.13	1065.65
980.42	1070.33
980.72	1066.58
981.01	1064.71
981.30	1067.99
981.59	1072.67
981.89	1084.84
982.18	1078.52
982.47	1083.43
982.76	1086.94
983.06	1091.39
983.35	1079.22
983.64	1090.22
983.93	1087.88
984.22	1089.29
984.52	1089.05
984.81	1099.58
985.10	1095.14
985.39	1087.65
985.68	1080.16
985.97	1070.33
986.27	1060.50
986.56	1050.43
986.85	1064.24
987.14	1074.77
987.43	1082.97
987.72	1087.41
988.01	1095.60
988.31	1079.92
988.60	1079.22
988.89	1079.69
989.18	1080.39
989.47	1079.22
989.76	1096.07
990.05	1088.82
990.34	1087.41
990.63	1090.46
990.92	1094.20
991.21	1086.94
991.51	1097.24
991.80	1088.35
992.09	1085.54
992.38	1081.33
992.67	1078.52
992.96	1071.97
993.25	1070.33
993.54	1064.71
993.83	1069.86
994.12	1073.37
994.41	1068.69
994.70	1082.97
994.99	1079.22
995.28	1076.88
995.57	1071.26
995.86	1082.50
996.15	1059.56
996.44	1063.77
996.73	1062.37
997.02	1056.75
997.31	1038.73
997.59	1058.86
997.88	1061.20
998.17	1059.33
998.46	1065.41
998.75	1071.50
999.04	1068.92
999.33	1064.71
999.62	1064.24
999.91	1065.18
1000.20	1078.52
1000.49	1066.82
1000.77	1072.20
1001.06	1077.58
1001.35	1074.54
1001.64	1060.73
1001.93	1084.60
1002.22	1084.14
1002.51	1083.43
1002.79	1091.63
1003.08	1088.35
1003.37	1074.31
1003.66	1077.35
1003.95	1059.56
1004.23	1060.73
1004.52	1066.11
1004.81	1065.65
1005.10	1055.82
1005.39	1074.54
1005.67	1071.73
1005.96	1074.07
1006.25	1079.46
1006.54	1086.24
1006.83	1087.41
1007.11	1082.03
1007.40	1089.99
1007.69	1080.16
1007.97	1075.71
1008.26	1075.71
1008.55	1068.45
1008.84	1055.82
1009.12	1068.69
1009.41	1070.80
1009.70	1071.50
1009.98	1081.56
1010.27	1099.35
1010.56	1100.29
1010.85	1101.22
1011.13	1099.58
1011.42	1097.95
1011.71	1085.07
1011.99	1080.86
1012.28	1078.99
1012.56	1070.56
1012.85	1074.77
1013.14	1078.52
1013.42	1077.11
1013.71	1085.07
1014.00	1098.65
1014.28	1092.09
1014.57	1090.69
1014.85	1082.50
1015.14	1081.09
1015.43	1067.75
1015.71	1082.50
1016.00	1088.35
1016.28	1094.67
1016.57	1088.58
1016.85	1093.26
1017.14	1084.60
1017.43	1080.39
1017.71	1079.46
1018.00	1090.46
1018.28	1095.60
1018.57	1098.41
1018.85	1099.82
1019.14	1095.37
1019.42	1086.71
1019.71	1077.58
1019.99	1071.73
1020.28	1068.69
1020.56	1072.67
1020.85	1077.82
1021.13	1082.03
1021.42	1084.14
1021.70	1089.52
1021.99	1089.99
1022.27	1079.22
1022.55	1074.31
1022.84	1052.07
>>>>>End Processed Spectral Data<<<<<
