SpectraSuite Data File
++++++++++++++++++++++++++++++++++++
Date: Mon Aug 26 10:26:13 PDT 2019
User: corrico
Dark Spectrum Present: No
Reference Spectrum Present: No
Number of Sampled Component Spectra: 1
Spectrometers: USB2+H06089
Integration Time (usec): 10000 (USB2+H06089)
Spectra Averaged: 20 (USB2+H06089)
Boxcar Smoothing: 2 (USB2+H06089)
Correct for Electrical Dark: No (USB2+H06089)
Strobe/Lamp Enabled: No (USB2+H06089)
Correct for Detector Non-linearity: No (USB2+H06089)
Correct for Stray Light: No (USB2+H06089)
Number of Pixels in Processed Spectrum: 2048
>>>>>Begin Processed Spectral Data<<<<<
339.70	1044.70
340.07	1044.70
340.45	1007.69
340.82	982.93
341.19	960.06
341.57	934.32
341.94	923.39
342.31	917.96
342.69	910.52
343.06	903.73
343.43	901.01
343.81	899.63
344.18	900.19
344.55	908.95
344.93	918.36
345.30	924.25
345.67	933.36
346.04	938.86
346.42	945.23
346.79	950.35
347.16	959.50
347.54	965.52
347.91	972.98
348.28	984.24
348.65	993.89
349.03	1003.18
349.40	1015.56
349.77	1027.92
350.14	1033.84
350.52	1038.80
350.89	1043.90
351.26	1050.22
351.63	1055.63
352.01	1062.42
352.38	1070.61
352.75	1076.58
353.12	1080.11
353.50	1081.58
353.87	1083.08
354.24	1086.20
354.61	1087.60
354.98	1088.58
355.36	1092.82
355.73	1094.13
356.10	1095.53
356.47	1095.67
356.84	1093.76
357.22	1092.73
357.59	1094.83
357.96	1091.91
358.33	1092.49
358.70	1092.37
359.08	1091.77
359.45	1088.58
359.82	1090.50
360.19	1090.97
360.56	1088.82
360.94	1085.45
361.31	1084.18
361.68	1079.50
362.05	1079.41
362.42	1082.54
362.79	1085.47
363.16	1086.22
363.54	1087.32
363.91	1084.63
364.28	1086.01
364.65	1086.80
365.02	1086.06
365.39	1085.54
365.76	1085.61
366.14	1082.57
366.51	1080.06
366.88	1079.71
367.25	1081.00
367.62	1085.21
367.99	1083.97
368.36	1083.39
368.73	1084.23
369.10	1081.82
369.48	1078.05
369.85	1077.70
370.22	1076.30
370.59	1076.32
370.96	1080.91
371.33	1081.68
371.70	1083.08
372.07	1084.14
372.44	1083.13
372.81	1080.48
373.18	1083.36
373.55	1085.40
373.93	1086.83
374.30	1086.15
374.67	1086.59
375.04	1082.05
375.41	1083.76
375.78	1084.98
376.15	1086.66
376.52	1087.44
376.89	1089.64
377.26	1091.79
377.63	1092.33
378.00	1093.33
378.37	1091.70
378.74	1091.49
379.11	1086.57
379.48	1084.21
379.85	1081.47
380.22	1080.32
380.59	1080.11
380.96	1080.27
381.33	1083.86
381.70	1085.73
382.07	1085.21
382.44	1086.97
382.81	1087.53
383.18	1084.39
383.55	1087.13
383.92	1088.51
384.29	1083.04
384.66	1083.57
385.03	1082.54
385.40	1081.05
385.77	1078.66
386.14	1084.58
386.51	1086.38
386.88	1087.95
387.25	1090.71
387.62	1092.91
387.99	1092.02
388.36	1090.06
388.73	1090.20
389.10	1085.91
389.46	1086.48
389.83	1085.94
390.20	1086.06
390.57	1086.69
390.94	1089.92
391.31	1092.94
391.68	1093.22
392.05	1095.91
392.42	1097.55
392.79	1095.35
393.16	1095.14
393.53	1092.26
393.89	1091.65
394.26	1090.06
394.63	1089.71
395.00	1089.47
395.37	1091.70
395.74	1091.56
396.11	1094.86
396.48	1095.46
396.84	1094.86
397.21	1096.10
397.58	1097.31
397.95	1094.01
398.32	1092.54
398.69	1096.07
399.06	1094.01
399.42	1091.56
399.79	1091.84
400.16	1096.24
400.53	1090.92
400.90	1093.66
401.27	1093.99
401.64	1095.58
402.00	1091.93
402.37	1094.95
402.74	1094.32
403.11	1093.73
403.48	1094.86
403.84	1098.13
404.21	1092.70
404.58	1090.81
404.95	1091.13
405.32	1086.78
405.68	1086.45
406.05	1093.71
406.42	1099.61
406.79	1102.11
407.16	1104.66
407.52	1104.24
407.89	1100.61
408.26	1096.61
408.63	1095.37
408.99	1096.47
409.36	1097.85
409.73	1100.57
410.10	1101.74
410.47	1103.31
410.83	1104.97
411.20	1105.46
411.57	1106.75
411.94	1105.76
412.30	1107.17
412.67	1106.49
413.04	1106.84
413.40	1106.61
413.77	1109.37
414.14	1110.96
414.51	1109.65
414.87	1108.38
415.24	1106.49
415.61	1109.46
415.97	1106.30
416.34	1106.98
416.71	1111.12
417.08	1113.44
417.44	1114.56
417.81	1117.30
418.18	1118.07
418.54	1116.48
418.91	1115.92
419.28	1111.50
419.64	1111.12
420.01	1112.48
420.38	1111.10
420.74	1111.43
421.11	1113.67
421.48	1112.50
421.84	1113.72
422.21	1115.78
422.58	1117.70
422.94	1120.41
423.31	1122.08
423.68	1121.33
424.04	1120.60
424.41	1119.20
424.77	1117.37
425.14	1116.25
425.51	1117.30
425.87	1116.69
426.24	1118.89
426.61	1116.44
426.97	1119.50
427.34	1119.69
427.70	1121.14
428.07	1119.81
428.44	1121.77
428.80	1121.89
429.17	1121.65
429.53	1122.83
429.90	1123.81
430.27	1124.70
430.63	1125.05
431.00	1126.27
431.36	1126.41
431.73	1125.98
432.09	1126.76
432.46	1126.22
432.83	1124.72
433.19	1125.49
433.56	1124.49
433.92	1121.54
434.29	1120.06
434.65	1119.76
435.02	1118.38
435.38	1119.85
435.75	1120.77
436.11	1122.64
436.48	1124.02
436.84	1123.01
437.21	1121.75
437.57	1121.49
437.94	1121.19
438.30	1120.34
438.67	1121.49
439.03	1123.55
439.40	1123.15
439.76	1121.00
440.13	1122.97
440.49	1125.28
440.86	1125.49
441.22	1127.37
441.59	1128.68
441.95	1127.65
442.32	1122.90
442.68	1118.66
443.05	1118.50
443.41	1117.75
443.78	1115.64
444.14	1118.52
444.51	1124.00
444.87	1123.74
445.24	1124.67
445.60	1126.69
445.96	1125.21
446.33	1125.68
446.69	1123.48
447.06	1122.45
447.42	1122.33
447.79	1122.83
448.15	1117.32
448.51	1118.24
448.88	1119.15
449.24	1120.25
449.61	1121.77
449.97	1123.15
450.33	1125.03
450.70	1124.00
451.06	1120.72
451.43	1118.03
451.79	1119.50
452.15	1118.68
452.52	1117.93
452.88	1119.83
453.24	1121.87
453.61	1124.18
453.97	1124.44
454.34	1125.68
454.70	1127.44
455.06	1125.59
455.43	1121.12
455.79	1122.22
456.15	1124.77
456.52	1120.95
456.88	1119.67
457.24	1124.18
457.61	1121.23
457.97	1115.64
458.33	1119.38
458.70	1124.11
459.06	1121.91
459.42	1124.70
459.79	1128.86
460.15	1129.73
460.51	1128.14
460.88	1128.84
461.24	1129.36
461.60	1130.76
461.96	1126.34
462.33	1127.06
462.69	1129.19
463.05	1130.03
463.42	1127.11
463.78	1129.40
464.14	1132.35
464.50	1131.20
464.87	1132.05
465.23	1136.49
465.59	1139.65
465.95	1140.85
466.32	1144.17
466.68	1144.90
467.04	1145.36
467.40	1146.53
467.77	1148.13
468.13	1150.00
468.49	1150.07
468.85	1155.17
469.22	1158.71
469.58	1158.35
469.94	1160.95
470.30	1167.13
470.66	1167.69
471.03	1166.78
471.39	1169.54
471.75	1172.82
472.11	1175.35
472.47	1175.60
472.84	1180.31
473.20	1184.05
473.56	1185.39
473.92	1188.27
474.28	1200.51
474.65	1206.27
475.01	1211.18
475.37	1216.91
475.73	1223.21
476.09	1222.34
476.45	1229.67
476.81	1239.43
477.18	1247.20
477.54	1254.34
477.90	1264.52
478.26	1270.84
478.62	1278.42
478.98	1287.11
479.34	1297.29
479.71	1308.08
480.07	1323.18
480.43	1335.30
480.79	1350.54
481.15	1368.91
481.51	1384.87
481.87	1398.91
482.23	1416.91
482.59	1435.12
482.96	1452.51
483.32	1470.44
483.68	1492.77
484.04	1513.48
484.40	1537.47
484.76	1564.37
485.12	1596.13
485.48	1626.60
485.84	1655.32
486.20	1683.45
486.56	1715.92
486.92	1750.77
487.28	1785.69
487.64	1820.09
488.00	1861.29
488.37	1903.21
488.73	1943.74
489.09	1989.76
489.45	2045.44
489.81	2098.76
490.17	2155.47
490.53	2215.95
490.89	2273.43
491.25	2334.80
491.61	2404.41
491.97	2474.65
492.33	2548.75
492.69	2624.09
493.05	2705.71
493.41	2797.64
493.77	2890.56
494.13	2985.21
494.49	3090.33
494.85	3204.61
495.21	3307.62
495.57	3419.17
495.93	3543.69
496.29	3672.56
496.64	3809.22
497.00	3945.65
497.36	4093.83
497.72	4249.99
498.08	4430.42
498.44	4611.65
498.80	4815.51
499.16	5017.66
499.52	5218.41
499.88	5427.63
500.24	5641.18
500.60	5856.61
500.96	6088.18
501.32	6320.59
501.68	6557.55
502.03	6827.13
502.39	7121.15
502.75	7447.35
503.11	7815.24
503.47	8181.06
503.83	8563.72
504.19	8939.44
504.55	9333.03
504.91	9705.66
505.26	10074.74
505.62	10504.77
505.98	10985.49
506.34	11434.45
506.70	11948.27
507.06	12561.37
507.42	13157.60
507.78	13775.41
508.13	14512.42
508.49	15255.54
508.85	15968.49
509.21	16709.25
509.57	17476.64
509.93	18191.60
510.28	18913.52
510.64	19732.66
511.00	20525.84
511.36	21362.19
511.72	22283.94
512.07	23321.40
512.43	24320.74
512.79	25397.08
513.15	26512.09
513.51	27561.63
513.86	28564.97
514.22	29724.62
514.58	30939.21
514.94	32074.87
515.30	33358.27
515.65	34746.77
516.01	35982.20
516.37	37164.17
516.73	38437.61
517.08	39552.10
517.44	40584.02
517.80	41678.62
518.16	42761.80
518.51	43827.54
518.87	45012.93
519.23	46187.66
519.59	47346.77
519.94	48510.74
520.30	49606.34
520.66	50427.38
521.01	51230.07
521.37	52023.65
521.73	52645.65
522.09	53203.14
522.44	53919.97
522.80	54455.47
523.16	54783.40
523.51	55053.87
523.87	55358.91
524.23	55620.91
524.58	55808.74
524.94	56042.16
525.30	56303.15
525.65	56410.16
526.01	56441.32
526.37	56636.42
526.72	56807.31
527.08	56919.75
527.44	56942.03
527.79	56927.24
528.15	56761.06
528.51	56579.71
528.86	56431.51
529.22	56164.95
529.58	55772.67
529.93	55406.21
530.29	54861.48
530.65	54261.88
531.00	53805.90
531.36	53245.71
531.71	52608.46
532.07	52007.15
532.43	51177.69
532.78	50262.47
533.14	49534.09
533.49	48771.80
533.85	48133.23
534.21	47717.86
534.56	47288.18
534.92	46621.27
535.27	45904.27
535.63	44976.27
535.98	43923.64
536.34	42881.61
536.69	41949.35
537.05	41076.78
537.41	40318.98
537.76	39662.69
538.12	38840.11
538.47	38045.50
538.83	37382.10
539.18	36682.23
539.54	35866.91
539.89	35318.19
540.25	34845.01
540.60	34243.54
540.96	33506.57
541.31	32916.99
541.67	32409.49
542.02	31786.72
542.38	31202.78
542.73	30665.56
543.09	30007.66
543.44	29252.04
543.80	28618.92
544.15	27989.27
544.51	27518.24
544.86	27095.80
545.22	26724.96
545.57	26260.01
545.93	25705.87
546.28	25125.67
546.64	24652.72
546.99	24130.57
547.35	23664.43
547.70	23215.54
548.05	22752.04
548.41	22273.66
548.76	21717.60
549.12	21181.45
549.47	20724.34
549.83	20338.76
550.18	19910.87
550.53	19533.20
550.89	19131.05
551.24	18690.04
551.60	18254.33
551.95	17837.22
552.30	17485.60
552.66	17160.95
553.01	16851.62
553.37	16495.98
553.72	16135.75
554.07	15759.20
554.43	15382.26
554.78	15033.49
555.13	14703.64
555.49	14303.15
555.84	13924.90
556.19	13557.04
556.55	13170.48
556.90	12790.79
557.26	12563.60
557.61	12319.41
557.96	12052.89
558.32	11806.04
558.67	11562.78
559.02	11247.80
559.37	10950.36
559.73	10716.47
560.08	10479.47
560.43	10226.62
560.79	9998.75
561.14	9771.10
561.49	9516.52
561.85	9291.97
562.20	9110.28
562.55	8943.35
562.90	8760.39
563.26	8598.15
563.61	8427.36
563.96	8212.85
564.32	7974.13
564.67	7764.54
565.02	7582.84
565.37	7436.26
565.73	7276.00
566.08	7127.84
566.43	6966.79
566.78	6791.95
567.14	6603.77
567.49	6471.65
567.84	6322.98
568.19	6188.38
568.54	6062.10
568.90	5943.14
569.25	5820.00
569.60	5720.39
569.95	5638.12
570.31	5536.89
570.66	5435.50
571.01	5334.27
571.36	5237.30
571.71	5129.10
572.06	5031.99
572.42	4934.72
572.77	4828.90
573.12	4729.99
573.47	4638.64
573.82	4560.30
574.18	4487.49
574.53	4416.94
574.88	4346.37
575.23	4267.52
575.58	4177.46
575.93	4081.29
576.28	3993.12
576.64	3916.37
576.99	3827.99
577.34	3754.06
577.69	3678.60
578.04	3599.04
578.39	3520.10
578.74	3456.81
579.09	3385.09
579.44	3321.34
579.80	3268.04
580.15	3209.55
580.50	3148.02
580.85	3100.60
581.20	3048.85
581.55	2996.14
581.90	2949.45
582.25	2911.44
582.60	2858.54
582.95	2815.66
583.30	2774.56
583.65	2725.30
584.00	2676.22
584.35	2638.72
584.71	2596.73
585.06	2559.49
585.41	2532.01
585.76	2499.65
586.11	2461.07
586.46	2423.86
586.81	2378.57
587.16	2341.85
587.51	2312.33
587.86	2288.72
588.21	2266.13
588.56	2239.87
588.91	2211.48
589.26	2184.42
589.61	2150.60
589.96	2122.37
590.31	2097.19
590.66	2069.34
591.01	2042.56
591.36	2020.51
591.71	1991.96
592.06	1972.37
592.41	1948.75
592.76	1926.07
593.10	1901.73
593.45	1883.27
593.80	1863.30
594.15	1847.46
594.50	1832.99
594.85	1819.77
595.20	1802.68
595.55	1786.39
595.90	1764.13
596.25	1745.08
596.60	1728.02
596.95	1712.78
597.30	1701.76
597.64	1742.06
597.99	1731.69
598.34	1717.86
598.69	1705.67
599.04	1685.21
599.39	1621.50
599.74	1603.27
600.09	1587.91
600.44	1572.84
600.78	1564.06
601.13	1555.22
601.48	1547.54
601.83	1542.34
602.18	1529.17
602.53	1516.34
602.88	1506.23
603.22	1495.98
603.57	1482.03
603.92	1476.57
604.27	1470.51
604.62	1458.11
604.97	1447.67
605.31	1441.04
605.66	1433.11
606.01	1424.03
606.36	1417.31
606.71	1409.92
607.05	1403.83
607.40	1391.57
607.75	1385.85
608.10	1378.04
608.44	1373.17
608.79	1364.84
609.14	1365.47
609.49	1357.84
609.84	1350.42
610.18	1343.63
610.53	1338.04
610.88	1330.66
611.23	1327.95
611.57	1323.13
611.92	1319.08
612.27	1317.37
612.62	1309.93
612.96	1299.84
613.31	1294.76
613.66	1286.66
614.00	1280.93
614.35	1277.25
614.70	1274.84
615.05	1274.52
615.39	1270.75
615.74	1266.86
616.09	1262.70
616.43	1255.72
616.78	1248.86
617.13	1244.67
617.47	1238.68
617.82	1233.30
618.17	1235.26
618.51	1232.95
618.86	1231.07
619.21	1226.49
619.55	1225.13
619.90	1219.70
620.25	1215.65
620.59	1210.36
620.94	1207.97
621.29	1204.65
621.63	1202.19
621.98	1197.72
622.32	1197.37
622.67	1195.01
623.02	1192.13
623.36	1189.37
623.71	1185.20
624.05	1180.50
624.40	1177.27
624.75	1173.69
625.09	1172.75
625.44	1174.18
625.78	1174.97
626.13	1173.26
626.48	1172.96
626.82	1169.61
627.17	1165.73
627.51	1162.85
627.86	1161.35
628.20	1159.50
628.55	1157.28
628.89	1156.67
629.24	1154.28
629.58	1154.07
629.93	1153.25
630.28	1153.21
630.62	1153.28
630.97	1151.01
631.31	1147.03
631.66	1145.18
632.00	1144.24
632.35	1140.47
632.69	1140.94
633.04	1140.64
633.38	1138.69
633.73	1136.63
634.07	1136.52
634.42	1135.63
634.76	1134.13
635.11	1135.72
635.45	1137.55
635.79	1139.33
636.14	1140.15
636.48	1141.78
636.83	1137.76
637.17	1135.67
637.52	1134.62
637.86	1131.41
638.21	1130.57
638.55	1130.74
638.89	1127.44
639.24	1124.18
639.58	1124.42
639.93	1121.70
640.27	1122.12
640.61	1122.52
640.96	1121.21
641.30	1119.64
641.65	1118.26
641.99	1117.91
642.33	1117.37
642.68	1120.60
643.02	1120.55
643.37	1118.64
643.71	1116.62
644.05	1115.43
644.40	1111.64
644.74	1109.46
645.08	1113.46
645.43	1115.90
645.77	1116.53
646.11	1113.37
646.46	1117.07
646.80	1116.46
647.14	1111.78
647.49	1107.73
647.83	1109.04
648.17	1106.32
648.52	1104.01
648.86	1101.06
649.20	1102.02
649.55	1101.85
649.89	1099.68
650.23	1098.46
650.57	1103.12
650.92	1102.63
651.26	1105.93
651.60	1107.40
651.95	1107.96
652.29	1107.03
652.63	1110.37
652.97	1108.62
653.32	1109.11
653.66	1111.01
654.00	1110.84
654.34	1108.95
654.69	1108.59
655.03	1107.56
655.37	1106.35
655.71	1104.97
656.05	1105.51
656.40	1103.82
656.74	1102.16
657.08	1100.26
657.42	1099.42
657.76	1097.83
658.11	1099.37
658.45	1100.45
658.79	1100.08
659.13	1103.75
659.47	1103.00
659.82	1102.98
660.16	1101.25
660.50	1102.91
660.84	1100.87
661.18	1100.45
661.52	1098.69
661.87	1100.00
662.21	1097.90
662.55	1099.30
662.89	1102.93
663.23	1100.89
663.57	1100.24
663.91	1100.82
664.25	1102.18
664.60	1098.16
664.94	1101.08
665.28	1102.77
665.62	1103.87
665.96	1101.67
666.30	1102.77
666.64	1104.12
666.98	1100.99
667.32	1099.77
667.66	1099.16
668.01	1100.57
668.35	1099.58
668.69	1104.57
669.03	1105.81
669.37	1105.11
669.71	1105.44
670.05	1103.05
670.39	1099.98
670.73	1099.05
671.07	1100.40
671.41	1100.12
671.75	1098.09
672.09	1097.01
672.43	1093.78
672.77	1094.27
673.11	1090.99
673.45	1094.76
673.79	1096.26
674.13	1095.21
674.47	1094.43
674.81	1094.20
675.15	1095.25
675.49	1091.04
675.83	1094.43
676.17	1093.40
676.51	1096.92
676.85	1093.94
677.19	1094.69
677.53	1095.65
677.87	1096.94
678.21	1093.78
678.55	1094.93
678.89	1096.85
679.23	1095.63
679.57	1093.52
679.90	1095.00
680.24	1094.39
680.58	1093.76
680.92	1093.36
681.26	1091.09
681.60	1089.89
681.94	1090.92
682.28	1092.26
682.62	1092.00
682.96	1095.75
683.29	1095.42
683.63	1095.25
683.97	1096.47
684.31	1097.57
684.65	1094.88
684.99	1096.24
685.33	1094.97
685.67	1094.13
686.00	1092.37
686.34	1093.15
686.68	1091.77
687.02	1090.99
687.36	1086.87
687.70	1085.96
688.03	1085.40
688.37	1089.59
688.71	1089.24
689.05	1091.32
689.39	1090.69
689.72	1092.61
690.06	1088.23
690.40	1088.65
690.74	1090.10
691.08	1093.78
691.41	1092.05
691.75	1095.21
692.09	1094.81
692.43	1093.80
692.76	1091.56
693.10	1094.39
693.44	1092.02
693.78	1091.65
694.11	1091.16
694.45	1094.53
694.79	1092.26
695.13	1091.67
695.46	1095.23
695.80	1095.42
696.14	1094.13
696.48	1093.33
696.81	1093.87
697.15	1091.13
697.49	1090.64
697.82	1090.06
698.16	1090.64
698.50	1088.77
698.83	1089.00
699.17	1088.40
699.51	1087.58
699.84	1085.94
700.18	1086.78
700.52	1087.16
700.85	1086.90
701.19	1086.50
701.53	1086.34
701.86	1088.54
702.20	1086.99
702.54	1089.89
702.87	1091.88
703.21	1090.78
703.55	1090.60
703.88	1090.53
704.22	1091.72
704.55	1090.43
704.89	1093.50
705.23	1093.01
705.56	1097.90
705.90	1094.65
706.23	1097.01
706.57	1097.17
706.91	1097.41
707.24	1095.28
707.58	1095.91
707.91	1093.05
708.25	1093.87
708.58	1092.33
708.92	1088.00
709.26	1087.30
709.59	1086.87
709.93	1081.44
710.26	1080.09
710.60	1080.34
710.93	1082.40
711.27	1081.37
711.60	1084.77
711.94	1089.05
712.27	1088.82
712.61	1088.56
712.94	1092.30
713.28	1094.01
713.61	1090.64
713.95	1091.53
714.28	1091.37
714.62	1087.88
714.95	1086.85
715.29	1086.01
715.62	1088.63
715.96	1087.90
716.29	1091.91
716.63	1094.27
716.96	1094.06
717.29	1093.43
717.63	1093.66
717.96	1088.16
718.30	1088.47
718.63	1088.70
718.97	1088.93
719.30	1088.19
719.63	1089.29
719.97	1086.73
720.30	1087.34
720.64	1087.11
720.97	1089.66
721.30	1092.68
721.64	1089.94
721.97	1092.75
722.31	1090.67
722.64	1089.22
722.97	1086.92
723.31	1089.54
723.64	1088.58
723.97	1093.59
724.31	1094.34
724.64	1092.77
724.98	1091.70
725.31	1092.00
725.64	1088.82
725.98	1089.26
726.31	1090.55
726.64	1091.32
726.97	1090.29
727.31	1089.57
727.64	1086.41
727.97	1090.32
728.31	1091.04
728.64	1089.59
728.97	1091.93
729.31	1091.79
729.64	1087.48
729.97	1085.59
730.30	1086.45
730.64	1087.48
730.97	1087.18
731.30	1087.76
731.63	1087.67
731.97	1089.43
732.30	1088.42
732.63	1089.68
732.96	1090.27
733.30	1089.96
733.63	1090.27
733.96	1085.91
734.29	1083.97
734.63	1084.25
734.96	1086.52
735.29	1083.93
735.62	1087.62
735.95	1091.84
736.29	1091.37
736.62	1091.27
736.95	1089.36
737.28	1089.45
737.61	1086.99
737.94	1087.58
738.28	1087.72
738.61	1089.92
738.94	1088.68
739.27	1086.01
739.60	1084.81
739.93	1085.96
740.27	1088.26
740.60	1085.35
740.93	1090.55
741.26	1088.07
741.59	1086.06
741.92	1084.53
742.25	1086.36
742.58	1083.15
742.91	1086.03
743.25	1087.97
743.58	1086.24
743.91	1089.07
744.24	1090.03
744.57	1091.53
744.90	1089.92
745.23	1092.96
745.56	1090.29
745.89	1091.81
746.22	1088.65
746.55	1089.73
746.88	1087.41
747.21	1086.73
747.54	1085.19
747.87	1084.79
748.20	1085.91
748.53	1087.09
748.87	1089.40
749.20	1089.17
749.53	1087.27
749.86	1082.76
750.19	1082.15
750.52	1081.44
750.85	1081.58
751.18	1085.31
751.51	1085.87
751.84	1087.72
752.16	1086.50
752.49	1085.73
752.82	1084.44
753.15	1084.79
753.48	1082.94
753.81	1085.96
754.14	1082.52
754.47	1084.32
754.80	1085.03
755.13	1086.27
755.46	1087.93
755.79	1089.50
756.12	1093.24
756.45	1094.62
756.78	1090.85
757.11	1087.69
757.43	1087.97
757.76	1084.39
758.09	1083.39
758.42	1084.74
758.75	1084.89
759.08	1084.81
759.41	1086.22
759.74	1087.46
760.07	1089.52
760.39	1087.41
760.72	1089.12
761.05	1090.39
761.38	1091.06
761.71	1091.56
762.04	1090.95
762.36	1088.91
762.69	1086.97
763.02	1083.53
763.35	1083.25
763.68	1087.72
764.01	1088.19
764.33	1087.90
764.66	1091.88
764.99	1090.41
765.32	1085.59
765.65	1086.08
765.97	1087.62
766.30	1088.07
766.63	1089.82
766.96	1091.13
767.28	1093.31
767.61	1089.71
767.94	1085.99
768.27	1083.62
768.59	1086.71
768.92	1086.64
769.25	1088.23
769.58	1088.98
769.90	1089.22
770.23	1086.17
770.56	1085.00
770.89	1084.04
771.21	1083.88
771.54	1084.11
771.87	1086.43
772.19	1083.39
772.52	1085.38
772.85	1086.52
773.17	1086.29
773.50	1086.31
773.83	1090.48
774.15	1087.13
774.48	1085.82
774.81	1087.65
775.13	1085.75
775.46	1086.80
775.79	1089.43
776.11	1091.79
776.44	1092.05
776.77	1091.70
777.09	1089.73
777.42	1087.90
777.74	1087.67
778.07	1083.11
778.40	1082.59
778.72	1080.25
779.05	1083.11
779.37	1083.46
779.70	1086.01
780.03	1087.97
780.35	1088.04
780.68	1088.09
781.00	1089.17
781.33	1088.12
781.65	1088.21
781.98	1089.40
782.31	1085.70
782.63	1083.18
782.96	1083.76
783.28	1085.26
783.61	1086.73
783.93	1088.70
784.26	1087.58
784.58	1090.13
784.91	1085.33
785.23	1085.96
785.56	1085.26
785.88	1082.05
786.21	1079.41
786.53	1085.17
786.86	1084.86
787.18	1085.12
787.51	1085.68
787.83	1086.31
788.16	1084.49
788.48	1082.99
788.81	1083.15
789.13	1087.41
789.46	1088.33
789.78	1085.59
790.10	1086.66
790.43	1085.99
790.75	1085.66
791.08	1083.71
791.40	1082.43
791.73	1085.42
792.05	1085.38
792.37	1084.02
792.70	1083.81
793.02	1087.95
793.35	1083.01
793.67	1085.49
793.99	1085.38
794.32	1086.97
794.64	1086.94
794.96	1086.36
795.29	1084.74
795.61	1085.28
795.93	1082.40
796.26	1077.86
796.58	1081.37
796.91	1081.44
797.23	1079.41
797.55	1081.56
797.87	1085.12
798.20	1082.94
798.52	1080.67
798.84	1083.50
799.17	1082.71
799.49	1084.32
799.81	1081.61
800.14	1084.86
800.46	1084.81
800.78	1089.07
801.10	1088.51
801.43	1091.79
801.75	1090.46
802.07	1089.05
802.40	1087.93
802.72	1089.78
803.04	1089.85
803.36	1091.27
803.69	1092.02
804.01	1087.53
804.33	1084.49
804.65	1084.70
804.97	1085.84
805.30	1087.32
805.62	1090.03
805.94	1089.36
806.26	1089.10
806.58	1088.14
806.91	1084.91
807.23	1084.79
807.55	1083.36
807.87	1082.31
808.19	1080.58
808.52	1082.69
808.84	1082.12
809.16	1085.87
809.48	1085.31
809.80	1086.13
810.12	1082.99
810.44	1084.30
810.77	1080.39
811.09	1082.97
811.41	1084.02
811.73	1086.17
812.05	1086.06
812.37	1088.63
812.69	1088.54
813.01	1086.48
813.33	1085.26
813.66	1084.16
813.98	1084.44
814.30	1085.07
814.62	1084.00
814.94	1085.94
815.26	1084.25
815.58	1085.12
815.90	1084.30
816.22	1087.09
816.54	1087.95
816.86	1091.44
817.18	1090.17
817.50	1092.68
817.82	1090.64
818.14	1091.30
818.46	1088.98
818.78	1089.36
819.10	1086.10
819.42	1089.75
819.74	1089.78
820.06	1089.40
820.38	1088.72
820.70	1089.64
821.02	1086.27
821.34	1083.93
821.66	1086.41
821.98	1086.59
822.30	1086.03
822.62	1084.60
822.94	1086.01
823.26	1084.81
823.58	1082.31
823.90	1081.47
824.22	1083.39
824.54	1081.73
824.86	1083.43
825.18	1085.73
825.50	1086.78
825.81	1087.20
826.13	1088.51
826.45	1082.85
826.77	1079.01
827.09	1077.09
827.41	1073.63
827.73	1070.89
828.05	1077.86
828.36	1081.58
828.68	1082.17
829.00	1086.20
829.32	1086.94
829.64	1083.25
829.96	1086.43
830.28	1086.36
830.59	1084.89
830.91	1084.23
831.23	1083.90
831.55	1081.61
831.87	1083.64
832.19	1084.44
832.50	1085.28
832.82	1085.33
833.14	1083.11
833.46	1083.20
833.78	1081.19
834.09	1081.47
834.41	1082.99
834.73	1081.96
835.05	1079.71
835.36	1081.14
835.68	1082.76
836.00	1081.07
836.32	1082.43
836.63	1086.57
836.95	1090.29
837.27	1088.16
837.59	1092.23
837.90	1094.06
838.22	1092.21
838.54	1089.96
838.85	1092.89
839.17	1092.49
839.49	1090.76
839.80	1088.82
840.12	1088.14
840.44	1085.14
840.76	1083.01
841.07	1086.34
841.39	1087.88
841.71	1087.16
842.02	1089.36
842.34	1087.02
842.65	1083.04
842.97	1083.74
843.29	1082.64
843.60	1081.12
843.92	1082.05
844.24	1083.90
844.55	1083.22
844.87	1086.03
845.18	1089.64
845.50	1092.33
845.82	1090.85
846.13	1089.43
846.45	1085.94
846.76	1086.34
847.08	1085.31
847.40	1086.85
847.71	1087.16
848.03	1087.76
848.34	1085.19
848.66	1084.11
848.97	1083.69
849.29	1081.02
849.60	1081.61
849.92	1077.61
850.24	1076.72
850.55	1074.00
850.87	1077.56
851.18	1076.97
851.50	1081.09
851.81	1083.48
852.13	1087.97
852.44	1088.35
852.76	1087.83
853.07	1084.04
853.39	1080.16
853.70	1078.52
854.01	1075.57
854.33	1075.45
854.64	1079.78
854.96	1082.01
855.27	1081.94
855.59	1085.35
855.90	1088.00
856.22	1088.33
856.53	1089.31
856.84	1087.65
857.16	1085.75
857.47	1083.29
857.79	1080.06
858.10	1076.79
858.41	1078.52
858.73	1077.79
859.04	1080.95
859.36	1082.40
859.67	1087.09
859.98	1087.90
860.30	1088.93
860.61	1087.44
860.92	1086.50
861.24	1082.52
861.55	1083.79
861.87	1083.81
862.18	1083.34
862.49	1083.20
862.81	1088.21
863.12	1085.77
863.43	1086.43
863.74	1087.48
864.06	1091.02
864.37	1087.16
864.68	1087.09
865.00	1086.92
865.31	1089.22
865.62	1089.00
865.94	1088.47
866.25	1091.65
866.56	1090.17
866.87	1086.22
867.19	1082.10
867.50	1083.15
867.81	1078.17
868.12	1078.89
868.44	1080.84
868.75	1080.63
869.06	1080.13
869.37	1081.96
869.68	1078.31
870.00	1078.40
870.31	1079.34
870.62	1081.75
870.93	1082.15
871.24	1085.35
871.56	1082.99
871.87	1081.63
872.18	1077.25
872.49	1077.40
872.80	1081.26
873.12	1082.87
873.43	1083.11
873.74	1086.43
874.05	1086.64
874.36	1084.93
874.67	1086.48
874.98	1088.86
875.29	1087.18
875.61	1085.12
875.92	1082.71
876.23	1081.75
876.54	1083.04
876.85	1083.79
877.16	1083.97
877.47	1085.28
877.78	1082.85
878.09	1079.95
878.40	1080.37
878.72	1083.13
879.03	1083.29
879.34	1084.49
879.65	1086.99
879.96	1091.70
880.27	1088.68
880.58	1086.17
880.89	1085.19
881.20	1084.86
881.51	1078.00
881.82	1080.09
882.13	1079.03
882.44	1078.07
882.75	1077.40
883.06	1080.09
883.37	1080.11
883.68	1082.29
883.99	1089.47
884.30	1087.18
884.61	1086.87
884.92	1086.99
885.23	1087.67
885.54	1081.54
885.85	1083.95
886.16	1083.60
886.47	1084.91
886.78	1086.94
887.08	1087.53
887.39	1085.94
887.70	1085.70
888.01	1082.83
888.32	1079.34
888.63	1079.31
888.94	1079.31
889.25	1079.99
889.56	1082.31
889.87	1083.71
890.17	1082.15
890.48	1083.48
890.79	1082.10
891.10	1081.70
891.41	1081.02
891.72	1085.24
892.03	1087.37
892.34	1091.79
892.64	1091.16
892.95	1091.11
893.26	1089.00
893.57	1086.15
893.88	1083.01
894.18	1081.82
894.49	1082.71
894.80	1084.49
895.11	1084.37
895.42	1081.82
895.72	1081.40
896.03	1080.46
896.34	1075.69
896.65	1076.62
896.96	1081.82
897.26	1082.26
897.57	1081.77
897.88	1086.06
898.19	1084.35
898.49	1082.33
898.80	1083.41
899.11	1086.43
899.41	1086.36
899.72	1087.55
900.03	1086.27
900.34	1085.28
900.64	1086.06
900.95	1084.32
901.26	1083.81
901.56	1082.83
901.87	1084.35
902.18	1079.34
902.48	1080.16
902.79	1080.88
903.10	1079.83
903.40	1079.36
903.71	1086.29
904.02	1086.06
904.32	1083.62
904.63	1083.60
904.94	1085.21
905.24	1081.44
905.55	1081.23
905.85	1081.21
906.16	1086.03
906.47	1083.60
906.77	1084.67
907.08	1086.90
907.38	1090.53
907.69	1088.14
908.00	1090.48
908.30	1089.22
908.61	1090.06
908.91	1089.66
909.22	1086.48
909.52	1083.60
909.83	1082.57
910.14	1079.95
910.44	1078.85
910.75	1081.35
911.05	1082.22
911.36	1083.60
911.66	1083.64
911.97	1084.18
912.27	1085.12
912.58	1084.37
912.88	1082.71
913.19	1082.31
913.49	1081.28
913.80	1081.09
914.10	1079.60
914.41	1080.34
914.71	1079.24
915.01	1081.21
915.32	1083.93
915.62	1086.52
915.93	1086.73
916.23	1087.23
916.54	1084.98
916.84	1081.05
917.15	1082.92
917.45	1082.47
917.75	1082.29
918.06	1082.54
918.36	1086.29
918.67	1086.13
918.97	1087.83
919.27	1090.32
919.58	1091.46
919.88	1088.56
920.18	1084.70
920.49	1081.33
920.79	1079.76
921.10	1079.57
921.40	1079.83
921.70	1081.02
922.01	1081.23
922.31	1083.25
922.61	1086.90
922.92	1085.05
923.22	1084.91
923.52	1084.16
923.82	1077.35
924.13	1074.70
924.43	1076.39
924.73	1079.20
925.04	1081.40
925.34	1089.12
925.64	1086.06
925.94	1084.63
926.25	1082.61
926.55	1081.89
926.85	1079.67
927.15	1080.11
927.46	1081.05
927.76	1080.58
928.06	1077.84
928.36	1077.44
928.67	1080.37
928.97	1080.77
929.27	1083.32
929.57	1086.87
929.87	1085.87
930.18	1083.39
930.48	1084.91
930.78	1084.09
931.08	1086.24
931.38	1086.29
931.69	1088.58
931.99	1088.30
932.29	1087.62
932.59	1086.99
932.89	1090.20
933.19	1088.58
933.49	1090.20
933.80	1090.71
934.10	1092.61
934.40	1089.99
934.70	1092.87
935.00	1090.06
935.30	1088.12
935.60	1084.18
935.90	1082.66
936.20	1080.86
936.50	1079.01
936.81	1077.72
937.11	1076.13
937.41	1077.37
937.71	1075.73
938.01	1075.87
938.31	1076.97
938.61	1078.94
938.91	1075.99
939.21	1077.44
939.51	1081.98
939.81	1083.62
940.11	1085.96
940.41	1089.57
940.71	1088.93
941.01	1085.63
941.31	1086.83
941.61	1087.86
941.91	1085.77
942.21	1087.53
942.51	1089.59
942.81	1089.64
943.11	1086.17
943.41	1089.33
943.71	1088.56
944.01	1087.37
944.31	1085.87
944.61	1085.24
944.90	1082.69
945.20	1081.70
945.50	1081.98
945.80	1081.28
946.10	1082.45
946.40	1084.98
946.70	1088.26
947.00	1086.69
947.30	1083.97
947.60	1082.80
947.89	1078.89
948.19	1076.13
948.49	1077.54
948.79	1080.27
949.09	1083.88
949.39	1084.67
949.69	1083.71
949.98	1085.54
950.28	1087.88
950.58	1081.96
950.88	1082.57
951.18	1083.57
951.48	1081.44
951.77	1079.01
952.07	1083.76
952.37	1087.04
952.67	1087.88
952.97	1087.97
953.26	1088.42
953.56	1087.46
953.86	1083.34
954.16	1080.70
954.45	1081.12
954.75	1080.77
955.05	1079.83
955.35	1083.74
955.64	1086.76
955.94	1087.48
956.24	1089.71
956.54	1089.03
956.83	1088.98
957.13	1088.93
957.43	1088.40
957.72	1084.77
958.02	1087.67
958.32	1089.14
958.61	1086.41
958.91	1083.81
959.21	1085.17
959.50	1085.03
959.80	1081.54
960.10	1082.76
960.39	1082.12
960.69	1081.07
960.99	1078.47
961.28	1077.72
961.58	1080.16
961.87	1084.60
962.17	1086.64
962.47	1089.17
962.76	1090.95
963.06	1086.36
963.36	1085.07
963.65	1085.66
963.95	1083.83
964.24	1085.03
964.54	1084.46
964.83	1081.68
965.13	1082.59
965.42	1081.87
965.72	1079.67
966.02	1083.43
966.31	1086.24
966.61	1086.13
966.90	1088.33
967.20	1092.37
967.49	1091.32
967.79	1086.10
968.08	1079.92
968.38	1080.37
968.67	1076.62
968.97	1078.96
969.26	1082.33
969.56	1083.01
969.85	1080.79
970.15	1083.06
970.44	1080.23
970.74	1084.91
971.03	1085.35
971.32	1087.13
971.62	1086.10
971.91	1085.80
972.21	1081.44
972.50	1085.73
972.80	1084.39
973.09	1082.26
973.38	1082.57
973.68	1081.63
973.97	1079.41
974.27	1080.74
974.56	1081.70
974.85	1082.45
975.15	1083.97
975.44	1083.36
975.73	1084.89
976.03	1087.48
976.32	1086.85
976.61	1086.34
976.91	1086.97
977.20	1081.98
977.49	1082.01
977.79	1084.14
978.08	1084.96
978.37	1085.31
978.67	1085.82
978.96	1084.67
979.25	1084.37
979.55	1083.18
979.84	1082.90
980.13	1085.40
980.42	1079.38
980.72	1077.77
981.01	1079.08
981.30	1079.29
981.59	1079.90
981.89	1086.78
982.18	1087.44
982.47	1088.37
982.76	1087.55
983.06	1084.96
983.35	1081.14
983.64	1081.77
983.93	1080.81
984.22	1081.37
984.52	1083.88
984.81	1085.21
985.10	1083.41
985.39	1084.09
985.68	1083.48
985.97	1084.16
986.27	1083.90
986.56	1084.63
986.85	1085.87
987.14	1084.70
987.43	1084.09
987.72	1084.53
988.01	1083.13
988.31	1081.33
988.60	1085.59
988.89	1083.04
989.18	1083.15
989.47	1083.83
989.76	1083.97
990.05	1081.12
990.34	1082.80
990.63	1081.94
990.92	1082.43
991.21	1081.12
991.51	1081.73
991.80	1081.87
992.09	1082.05
992.38	1081.30
992.67	1080.79
992.96	1078.52
993.25	1079.53
993.54	1082.47
993.83	1082.78
994.12	1086.99
994.41	1091.34
994.70	1090.43
994.99	1087.23
995.28	1089.59
995.57	1087.09
995.86	1085.40
996.15	1085.94
996.44	1085.38
996.73	1083.18
997.02	1082.87
997.31	1083.83
997.59	1081.16
997.88	1081.82
998.17	1081.26
998.46	1080.63
998.75	1081.42
999.04	1082.52
999.33	1082.03
999.62	1084.63
999.91	1083.32
1000.20	1078.45
1000.49	1075.62
1000.77	1078.26
1001.06	1076.11
1001.35	1079.85
1001.64	1081.23
1001.93	1082.69
1002.22	1078.92
1002.51	1077.07
1002.79	1074.82
1003.08	1076.58
1003.37	1077.98
1003.66	1080.58
1003.95	1081.61
1004.23	1080.79
1004.52	1079.53
1004.81	1080.20
1005.10	1081.42
1005.39	1081.00
1005.67	1081.37
1005.96	1081.07
1006.25	1082.92
1006.54	1080.86
1006.83	1084.14
1007.11	1086.52
1007.40	1087.02
1007.69	1084.07
1007.97	1079.85
1008.26	1078.57
1008.55	1077.18
1008.84	1078.00
1009.12	1075.94
1009.41	1078.40
1009.70	1081.61
1009.98	1081.68
1010.27	1083.36
1010.56	1090.50
1010.85	1093.92
1011.13	1087.90
1011.42	1089.85
1011.71	1088.21
1011.99	1081.94
1012.28	1078.31
1012.56	1080.86
1012.85	1077.11
1013.14	1077.02
1013.42	1078.26
1013.71	1080.91
1014.00	1082.24
1014.28	1083.67
1014.57	1084.63
1014.85	1083.53
1015.14	1081.40
1015.43	1079.55
1015.71	1076.67
1016.00	1074.82
1016.28	1074.98
1016.57	1075.29
1016.85	1073.44
1017.14	1078.47
1017.43	1080.41
1017.71	1084.28
1018.00	1082.69
1018.28	1087.37
1018.57	1082.12
1018.85	1080.46
1019.14	1078.85
1019.42	1082.76
1019.71	1080.95
1019.99	1084.04
1020.28	1085.33
1020.56	1083.48
1020.85	1082.92
1021.13	1079.13
1021.42	1078.38
1021.70	1077.84
1021.99	1080.13
1022.27	1076.69
1022.55	1088.47
1022.84	1067.28
>>>>>End Processed Spectral Data<<<<<
