SpectraSuite Data File
++++++++++++++++++++++++++++++++++++
Date: Mon Aug 26 10:26:35 PDT 2019
User: corrico
Dark Spectrum Present: No
Reference Spectrum Present: No
Number of Sampled Component Spectra: 1
Spectrometers: USB2+H06089
Integration Time (usec): 10000 (USB2+H06089)
Spectra Averaged: 20 (USB2+H06089)
Boxcar Smoothing: 2 (USB2+H06089)
Correct for Electrical Dark: No (USB2+H06089)
Strobe/Lamp Enabled: No (USB2+H06089)
Correct for Detector Non-linearity: No (USB2+H06089)
Correct for Stray Light: No (USB2+H06089)
Number of Pixels in Processed Spectrum: 2048
>>>>>Begin Processed Spectral Data<<<<<
339.70	1036.27
340.07	1036.27
340.45	1000.25
340.82	976.35
341.19	952.32
341.57	927.51
341.94	918.82
342.31	909.44
342.69	907.19
343.06	902.70
343.43	900.38
343.81	899.82
344.18	904.36
344.55	907.75
344.93	914.59
345.30	921.82
345.67	931.32
346.04	938.46
346.42	947.61
346.79	957.44
347.16	966.36
347.54	975.91
347.91	984.85
348.28	993.96
348.65	1002.36
349.03	1009.71
349.40	1015.96
349.77	1024.62
350.14	1030.07
350.52	1038.10
350.89	1043.22
351.26	1051.18
351.63	1053.43
352.01	1061.15
352.38	1062.25
352.75	1069.23
353.12	1070.00
353.50	1076.39
353.87	1074.07
354.24	1078.64
354.61	1081.12
354.98	1086.52
355.36	1091.11
355.73	1097.92
356.10	1098.18
356.47	1094.67
356.84	1092.37
357.22	1090.88
357.59	1086.22
357.96	1085.14
358.33	1086.57
358.70	1086.97
359.08	1081.44
359.45	1085.00
359.82	1086.13
360.19	1087.44
360.56	1087.34
360.94	1090.69
361.31	1087.25
361.68	1086.10
362.05	1084.77
362.42	1084.11
362.79	1083.88
363.16	1085.91
363.54	1086.59
363.91	1087.67
364.28	1088.23
364.65	1087.46
365.02	1087.79
365.39	1085.80
365.76	1085.52
366.14	1082.85
366.51	1080.58
366.88	1077.58
367.25	1079.22
367.62	1077.77
367.99	1077.98
368.36	1078.12
368.73	1079.24
369.10	1079.83
369.48	1079.97
369.85	1080.23
370.22	1080.81
370.59	1081.66
370.96	1081.66
371.33	1083.08
371.70	1082.17
372.07	1082.76
372.44	1082.29
372.81	1081.28
373.18	1079.17
373.55	1078.07
373.93	1076.15
374.30	1075.08
374.67	1072.18
375.04	1077.98
375.41	1079.22
375.78	1083.46
376.15	1083.67
376.52	1084.91
376.89	1079.78
377.26	1080.63
377.63	1079.29
378.00	1082.05
378.37	1084.96
378.74	1084.98
379.11	1084.09
379.48	1081.91
379.85	1079.50
380.22	1077.91
380.59	1082.01
380.96	1086.17
381.33	1085.80
381.70	1086.15
382.07	1082.26
382.44	1081.35
382.81	1079.24
383.18	1081.21
383.55	1083.64
383.92	1090.34
384.29	1089.24
384.66	1089.05
385.03	1092.00
385.40	1092.61
385.77	1093.78
386.14	1093.36
386.51	1095.51
386.88	1094.65
387.25	1089.47
387.62	1086.55
387.99	1087.67
388.36	1083.53
388.73	1082.59
389.10	1084.70
389.46	1086.80
389.83	1086.08
390.20	1087.90
390.57	1087.20
390.94	1085.63
391.31	1083.74
391.68	1084.39
392.05	1084.28
392.42	1088.84
392.79	1093.15
393.16	1092.45
393.53	1093.64
393.89	1096.03
394.26	1091.09
394.63	1087.93
395.00	1086.29
395.37	1085.49
395.74	1081.94
396.11	1082.87
396.48	1085.12
396.84	1088.77
397.21	1088.51
397.58	1091.46
397.95	1094.32
398.32	1092.84
398.69	1093.01
399.06	1093.47
399.42	1092.68
399.79	1091.56
400.16	1095.32
400.53	1094.46
400.90	1096.47
401.27	1094.15
401.64	1092.16
402.00	1088.19
402.37	1090.13
402.74	1088.28
403.11	1092.23
403.48	1095.72
403.84	1098.20
404.21	1098.13
404.58	1096.54
404.95	1096.63
405.32	1096.14
405.68	1095.35
406.05	1094.86
406.42	1097.64
406.79	1100.47
407.16	1099.47
407.52	1101.25
407.89	1099.12
408.26	1098.23
408.63	1094.79
408.99	1095.28
409.36	1092.07
409.73	1094.08
410.10	1093.12
410.47	1096.85
410.83	1096.42
411.20	1099.26
411.57	1101.20
411.94	1104.33
412.30	1101.78
412.67	1100.75
413.04	1098.79
413.40	1097.59
413.77	1096.52
414.14	1101.20
414.51	1103.14
414.87	1108.03
415.24	1106.58
415.61	1105.13
415.97	1102.86
416.34	1102.09
416.71	1100.03
417.08	1100.99
417.44	1101.03
417.81	1100.87
418.18	1100.87
418.54	1102.37
418.91	1102.49
419.28	1105.34
419.64	1103.23
420.01	1106.07
420.38	1105.04
420.74	1105.97
421.11	1105.46
421.48	1106.04
421.84	1104.36
422.21	1105.46
422.58	1107.21
422.94	1107.38
423.31	1107.85
423.68	1108.17
424.04	1107.05
424.41	1103.94
424.77	1103.84
425.14	1103.47
425.51	1108.29
425.87	1111.05
426.24	1112.78
426.61	1111.73
426.97	1114.52
427.34	1111.64
427.70	1112.62
428.07	1115.38
428.44	1116.69
428.80	1111.78
429.17	1114.82
429.53	1112.04
429.90	1108.88
430.27	1108.97
430.63	1113.95
431.00	1111.87
431.36	1114.02
431.73	1115.27
432.09	1116.53
432.46	1116.97
432.83	1115.62
433.19	1114.70
433.56	1115.24
433.92	1116.15
434.29	1113.44
434.65	1113.63
435.02	1115.05
435.38	1116.27
435.75	1115.90
436.11	1114.84
436.48	1116.22
436.84	1112.99
437.21	1112.81
437.57	1115.03
437.94	1119.38
438.30	1116.95
438.67	1116.46
439.03	1115.12
439.40	1109.93
439.76	1107.38
440.13	1108.66
440.49	1110.56
440.86	1108.69
441.22	1110.00
441.59	1110.26
441.95	1111.43
442.32	1112.15
442.68	1113.58
443.05	1116.74
443.41	1115.20
443.78	1114.87
444.14	1115.20
444.51	1117.23
444.87	1116.81
445.24	1120.44
445.60	1119.60
445.96	1118.73
446.33	1115.36
446.69	1112.34
447.06	1111.47
447.42	1111.92
447.79	1109.74
448.15	1111.24
448.51	1110.82
448.88	1108.08
449.24	1107.35
449.61	1108.41
449.97	1107.59
450.33	1107.33
450.70	1110.26
451.06	1110.07
451.43	1109.53
451.79	1109.09
452.15	1108.10
452.52	1106.21
452.88	1106.82
453.24	1106.02
453.61	1108.85
453.97	1109.62
454.34	1111.52
454.70	1111.85
455.06	1113.91
455.43	1112.22
455.79	1114.42
456.15	1111.10
456.52	1109.30
456.88	1109.27
457.24	1111.33
457.61	1113.02
457.97	1117.32
458.33	1119.50
458.70	1122.61
459.06	1124.84
459.42	1124.23
459.79	1123.27
460.15	1123.86
460.51	1119.27
460.88	1119.22
461.24	1119.71
461.60	1121.23
461.96	1121.05
462.33	1122.50
462.69	1117.75
463.05	1114.12
463.42	1111.85
463.78	1112.18
464.14	1113.07
464.50	1117.02
464.87	1118.57
465.23	1119.67
465.59	1119.90
465.95	1123.15
466.32	1122.54
466.68	1124.86
467.04	1127.88
467.40	1128.49
467.77	1128.33
468.13	1132.05
468.49	1134.34
468.85	1135.44
469.22	1138.58
469.58	1140.26
469.94	1139.47
470.30	1142.70
470.66	1142.23
471.03	1143.61
471.39	1146.82
471.75	1149.23
472.11	1149.13
472.47	1153.56
472.84	1156.29
473.20	1156.04
473.56	1158.42
473.92	1160.84
474.28	1163.85
474.65	1167.95
475.01	1170.62
475.37	1174.22
475.73	1181.13
476.09	1184.10
476.45	1188.64
476.81	1192.92
477.18	1196.32
477.54	1202.22
477.90	1206.52
478.26	1209.87
478.62	1218.90
478.98	1224.54
479.34	1227.63
479.71	1236.97
480.07	1248.86
480.43	1259.00
480.79	1269.55
481.15	1282.12
481.51	1292.98
481.87	1300.80
482.23	1307.33
482.59	1321.91
482.96	1331.81
483.32	1346.72
483.68	1363.62
484.04	1385.27
484.40	1401.14
484.76	1419.21
485.12	1435.36
485.48	1452.77
485.84	1464.45
486.20	1483.57
486.56	1506.35
486.92	1532.30
487.28	1555.96
487.64	1584.57
488.00	1612.77
488.37	1644.37
488.73	1674.86
489.09	1710.77
489.45	1746.34
489.81	1785.06
490.17	1819.58
490.53	1852.96
490.89	1892.72
491.25	1934.99
491.61	1979.79
491.97	2025.71
492.33	2081.77
492.69	2135.69
493.05	2191.94
493.41	2250.92
493.77	2321.30
494.13	2387.16
494.49	2456.49
494.85	2533.91
495.21	2606.72
495.57	2679.68
495.93	2761.25
496.29	2841.97
496.64	2935.13
497.00	3031.67
497.36	3134.75
497.72	3238.97
498.08	3350.31
498.44	3462.42
498.80	3590.66
499.16	3722.62
499.52	3862.84
499.88	4015.05
500.24	4169.38
500.60	4313.61
500.96	4470.47
501.32	4639.69
501.68	4809.10
502.03	4995.94
502.39	5213.68
502.75	5433.37
503.11	5663.65
503.47	5901.40
503.83	6144.14
504.19	6396.80
504.55	6674.88
504.91	6949.80
505.26	7240.63
505.62	7545.16
505.98	7867.66
506.34	8191.80
506.70	8561.77
507.06	8947.54
507.42	9365.33
507.78	9770.89
508.13	10190.97
508.49	10620.46
508.85	11092.43
509.21	11563.09
509.57	12087.95
509.93	12648.33
510.28	13251.08
510.64	13868.49
511.00	14485.25
511.36	15066.15
511.72	15651.35
512.07	16297.48
512.43	16904.54
512.79	17576.11
513.15	18316.94
513.51	19067.90
513.86	19796.30
514.22	20624.89
514.58	21419.51
514.94	22246.16
515.30	23105.60
515.65	23923.69
516.01	24770.92
516.37	25641.69
516.73	26426.08
517.08	27285.45
517.44	28132.05
517.80	28934.59
518.16	29773.93
518.51	30601.90
518.87	31348.29
519.23	32202.10
519.59	33090.35
519.94	33928.83
520.30	34815.84
520.66	35616.12
521.01	36421.54
521.37	37088.57
521.73	37711.62
522.09	38300.74
522.44	38936.36
522.80	39358.45
523.16	39708.12
523.51	39955.45
523.87	40246.35
524.23	40509.97
524.58	40781.38
524.94	41177.86
525.30	41515.39
525.65	41708.02
526.01	41745.14
526.37	41734.16
526.72	41645.34
527.08	41527.21
527.44	41359.28
527.79	41207.73
528.15	41099.39
528.51	40856.81
528.86	40650.12
529.22	40403.92
529.58	40147.54
529.93	39735.51
530.29	39300.47
530.65	38921.68
531.00	38568.10
531.36	38108.65
531.71	37680.78
532.07	37200.73
532.43	36598.61
532.78	35923.38
533.14	35346.14
533.49	34748.11
533.85	34124.94
534.21	33519.98
534.56	32965.11
534.92	32373.42
535.27	31756.79
535.63	31175.09
535.98	30537.23
536.34	29909.00
536.69	29256.77
537.05	28638.58
537.41	28101.50
537.76	27629.06
538.12	27077.00
538.47	26615.24
538.83	26170.93
539.18	25706.67
539.54	25222.76
539.89	24765.30
540.25	24206.85
540.60	23715.67
540.96	23216.10
541.31	22708.04
541.67	22282.65
542.02	21903.81
542.38	21469.52
542.73	21014.13
543.09	20622.06
543.44	20260.80
543.80	19922.48
544.15	19523.60
544.51	19191.46
544.86	18874.20
545.22	18502.29
545.57	18118.06
545.93	17761.39
546.28	17439.03
546.64	17118.44
546.99	16769.14
547.35	16433.65
547.70	16141.67
548.05	15812.31
548.41	15496.85
548.76	15211.14
549.12	14928.29
549.47	14655.78
549.83	14407.17
550.18	14089.67
550.53	13769.16
550.89	13496.98
551.24	13216.30
551.60	12913.18
551.95	12660.14
552.30	12420.52
552.66	12164.86
553.01	11919.97
553.37	11662.68
553.72	11383.55
554.07	11121.92
554.43	10836.00
554.78	10538.73
555.13	10280.34
555.49	10063.37
555.84	9867.65
556.19	9682.61
556.55	9490.61
556.90	9295.23
557.26	9088.82
557.61	8863.87
557.96	8622.93
558.32	8420.08
558.67	8212.59
559.02	7999.74
559.37	7815.77
559.73	7663.12
560.08	7506.29
560.43	7357.52
560.79	7228.18
561.14	7077.90
561.49	6920.99
561.85	6767.61
562.20	6617.47
562.55	6485.11
562.90	6357.27
563.26	6235.14
563.61	6120.85
563.96	6017.68
564.32	5892.09
564.67	5768.74
565.02	5639.36
565.37	5526.29
565.73	5403.59
566.08	5297.90
566.43	5187.19
566.78	5092.49
567.14	4979.26
567.49	4871.17
567.84	4765.45
568.19	4662.67
568.54	4568.87
568.90	4483.41
569.25	4405.10
569.60	4331.84
569.95	4263.17
570.31	4183.73
570.66	4105.60
571.01	4012.90
571.36	3916.40
571.71	3836.72
572.06	3764.03
572.42	3704.93
572.77	3659.26
573.12	3614.77
573.47	3556.70
573.82	3492.64
574.18	3416.92
574.53	3346.73
574.88	3280.87
575.23	3227.53
575.58	3185.87
575.93	3142.38
576.28	3094.33
576.64	3046.16
576.99	2985.99
577.34	2928.24
577.69	2871.79
578.04	2823.27
578.39	2771.90
578.74	2733.04
579.09	2693.68
579.44	2658.29
579.80	2621.10
580.15	2577.02
580.50	2535.10
580.85	2498.76
581.20	2463.18
581.55	2430.76
581.90	2411.06
582.25	2385.38
582.60	2348.77
582.95	2314.51
583.30	2271.84
583.65	2231.47
584.00	2189.71
584.35	2152.57
584.71	2124.60
585.06	2099.41
585.41	2067.25
585.76	2043.08
586.11	2022.55
586.46	1994.14
586.81	1971.22
587.16	1954.53
587.51	1937.47
587.86	1917.86
588.21	1902.48
588.56	1884.53
588.91	1866.76
589.26	1845.84
589.61	1825.01
589.96	1804.76
590.31	1785.24
590.66	1768.60
591.01	1747.47
591.36	1730.99
591.71	1710.49
592.06	1691.39
592.41	1674.63
592.76	1661.80
593.10	1644.06
593.45	1630.67
593.80	1616.07
594.15	1598.82
594.50	1584.75
594.85	1573.07
595.20	1560.06
595.55	1549.95
595.90	1543.12
596.25	1532.77
596.60	1523.24
596.95	1515.50
597.30	1508.97
597.64	1544.96
597.99	1540.77
598.34	1533.40
598.69	1523.34
599.04	1512.69
599.39	1453.59
599.74	1440.69
600.09	1429.69
600.44	1424.24
600.78	1417.64
601.13	1413.33
601.48	1406.92
601.83	1398.73
602.18	1389.34
602.53	1382.06
602.88	1375.70
603.22	1367.65
603.57	1364.77
603.92	1357.04
604.27	1350.84
604.62	1344.68
604.97	1337.31
605.31	1330.83
605.66	1326.31
606.01	1317.56
606.36	1309.44
606.71	1304.64
607.05	1296.70
607.40	1288.18
607.75	1285.77
608.10	1283.74
608.44	1278.28
608.79	1275.43
609.14	1276.06
609.49	1267.66
609.84	1261.50
610.18	1262.46
610.53	1258.74
610.88	1253.12
611.23	1256.54
611.57	1253.92
611.92	1245.89
612.27	1243.92
612.62	1240.74
612.96	1233.88
613.31	1230.09
613.66	1228.01
614.00	1222.30
614.35	1220.10
614.70	1217.15
615.05	1211.30
615.39	1208.40
615.74	1209.57
616.09	1206.20
616.43	1199.71
616.78	1200.27
617.13	1198.26
617.47	1194.56
617.82	1193.84
618.17	1194.47
618.51	1189.39
618.86	1183.52
619.21	1179.40
619.55	1174.95
619.90	1174.93
620.25	1174.13
620.59	1175.81
620.94	1172.16
621.29	1171.48
621.63	1170.20
621.98	1168.77
622.32	1162.57
622.67	1165.68
623.02	1166.15
623.36	1162.82
623.71	1161.00
624.05	1162.15
624.40	1159.48
624.75	1156.62
625.09	1156.25
625.44	1156.48
625.78	1156.06
626.13	1151.22
626.48	1147.49
626.82	1145.88
627.17	1146.56
627.51	1146.61
627.86	1145.36
628.20	1144.94
628.55	1141.83
628.89	1135.04
629.24	1130.95
629.58	1135.91
629.93	1132.23
630.28	1130.85
630.62	1134.83
630.97	1135.79
631.31	1129.07
631.66	1129.24
632.00	1127.13
632.35	1125.35
632.69	1122.57
633.04	1121.98
633.38	1122.24
633.73	1120.11
634.07	1118.19
634.42	1119.95
634.76	1120.06
635.11	1117.82
635.45	1120.93
635.79	1119.13
636.14	1116.74
636.48	1117.93
636.83	1119.53
637.17	1117.61
637.52	1115.85
637.86	1114.82
638.21	1112.06
638.55	1108.85
638.89	1106.82
639.24	1109.13
639.58	1110.47
639.93	1110.91
640.27	1111.12
640.61	1115.66
640.96	1113.04
641.30	1112.76
641.65	1112.48
641.99	1116.25
642.33	1110.05
642.68	1109.93
643.02	1110.21
643.37	1110.30
643.71	1108.06
644.05	1112.60
644.40	1111.22
644.74	1108.59
645.08	1106.68
645.43	1105.83
645.77	1102.21
646.11	1101.74
646.46	1104.08
646.80	1104.26
647.14	1104.19
647.49	1109.18
647.83	1111.10
648.17	1109.18
648.52	1106.18
648.86	1104.26
649.20	1101.99
649.55	1098.86
649.89	1095.86
650.23	1098.72
650.57	1099.61
650.92	1096.73
651.26	1099.61
651.60	1099.37
651.95	1098.48
652.29	1097.06
652.63	1094.93
652.97	1093.24
653.32	1091.98
653.66	1092.94
654.00	1091.63
654.34	1094.83
654.69	1093.90
655.03	1094.74
655.37	1094.86
655.71	1097.69
656.05	1096.35
656.40	1096.14
656.74	1097.92
657.08	1094.90
657.42	1090.71
657.76	1090.71
658.11	1091.42
658.45	1093.85
658.79	1092.52
659.13	1094.93
659.47	1095.58
659.82	1094.83
660.16	1095.60
660.50	1100.05
660.84	1096.35
661.18	1094.86
661.52	1094.67
661.87	1090.20
662.21	1087.23
662.55	1092.56
662.89	1094.50
663.23	1093.31
663.57	1090.95
663.91	1089.61
664.25	1089.43
664.60	1088.49
664.94	1092.54
665.28	1095.96
665.62	1096.99
665.96	1093.83
666.30	1093.22
666.64	1090.99
666.98	1093.26
667.32	1091.39
667.66	1093.17
668.01	1094.39
668.35	1094.62
668.69	1093.66
669.03	1095.72
669.37	1095.65
669.71	1093.85
670.05	1093.71
670.39	1090.53
670.73	1091.37
671.07	1090.10
671.41	1092.21
671.75	1091.86
672.09	1092.80
672.43	1091.20
672.77	1091.27
673.11	1088.89
673.45	1086.08
673.79	1082.52
674.13	1083.57
674.47	1083.43
674.81	1083.18
675.15	1086.62
675.49	1090.57
675.83	1091.51
676.17	1092.47
676.51	1095.23
676.85	1092.73
677.19	1091.39
677.53	1090.34
677.87	1089.00
678.21	1089.94
678.55	1092.52
678.89	1093.66
679.23	1094.06
679.57	1096.05
679.90	1089.00
680.24	1087.34
680.58	1087.97
680.92	1088.07
681.26	1086.36
681.60	1086.64
681.94	1085.38
682.28	1085.75
682.62	1084.91
682.96	1086.97
683.29	1090.34
683.63	1091.79
683.97	1089.89
684.31	1089.82
684.65	1088.28
684.99	1086.76
685.33	1088.56
685.67	1089.96
686.00	1094.11
686.34	1093.69
686.68	1091.91
687.02	1092.63
687.36	1091.16
687.70	1087.53
688.03	1090.53
688.37	1094.95
688.71	1093.85
689.05	1093.76
689.39	1091.67
689.72	1090.76
690.06	1089.87
690.40	1089.00
690.74	1090.03
691.08	1091.39
691.41	1093.29
691.75	1095.79
692.09	1091.81
692.43	1092.66
692.76	1092.94
693.10	1087.53
693.44	1084.96
693.78	1090.74
694.11	1088.30
694.45	1088.54
694.79	1088.86
695.13	1089.57
695.46	1086.76
695.80	1089.71
696.14	1089.38
696.48	1088.40
696.81	1087.48
697.15	1086.22
697.49	1086.20
697.82	1087.46
698.16	1090.27
698.50	1091.70
698.83	1095.77
699.17	1095.91
699.51	1094.72
699.84	1093.43
700.18	1092.16
700.52	1089.50
700.85	1087.93
701.19	1084.18
701.53	1087.16
701.86	1085.45
702.20	1085.56
702.54	1088.00
702.87	1090.83
703.21	1090.10
703.55	1093.69
703.88	1095.96
704.22	1091.23
704.55	1090.97
704.89	1090.39
705.23	1087.34
705.56	1083.46
705.90	1085.24
706.23	1084.37
706.57	1083.36
706.91	1084.00
707.24	1085.89
707.58	1086.31
707.91	1087.27
708.25	1087.09
708.58	1086.41
708.92	1087.32
709.26	1085.03
709.59	1084.32
709.93	1087.18
710.26	1088.54
710.60	1087.55
710.93	1090.20
711.27	1088.75
711.60	1087.30
711.94	1088.28
712.27	1087.83
712.61	1086.73
712.94	1092.19
713.28	1091.09
713.61	1088.68
713.95	1087.81
714.28	1089.14
714.62	1089.05
714.95	1091.46
715.29	1092.52
715.62	1096.38
715.96	1094.01
716.29	1090.03
716.63	1086.73
716.96	1087.90
717.29	1086.57
717.63	1088.51
717.96	1088.79
718.30	1088.21
718.63	1086.52
718.97	1085.75
719.30	1086.27
719.63	1087.30
719.97	1086.13
720.30	1085.84
720.64	1085.24
720.97	1081.98
721.30	1082.97
721.64	1083.25
721.97	1082.78
722.31	1082.15
722.64	1086.66
722.97	1086.38
723.31	1087.72
723.64	1087.04
723.97	1086.13
724.31	1081.40
724.64	1081.30
724.98	1083.25
725.31	1082.85
725.64	1086.01
725.98	1089.50
726.31	1089.73
726.64	1087.51
726.97	1087.79
727.31	1087.06
727.64	1084.98
727.97	1083.53
728.31	1085.24
728.64	1088.14
728.97	1087.90
729.31	1090.22
729.64	1089.78
729.97	1087.39
730.30	1087.58
730.64	1089.03
730.97	1088.30
731.30	1088.19
731.63	1091.86
731.97	1089.19
732.30	1085.70
732.63	1082.26
732.96	1083.83
733.30	1081.37
733.63	1082.83
733.96	1085.87
734.29	1087.60
734.63	1084.89
734.96	1084.14
735.29	1083.95
735.62	1083.15
735.95	1084.07
736.29	1089.03
736.62	1091.56
736.95	1093.87
737.28	1094.11
737.61	1094.97
737.94	1092.49
738.28	1089.71
738.61	1089.24
738.94	1088.00
739.27	1087.86
739.60	1085.84
739.93	1086.69
740.27	1085.94
740.60	1086.87
740.93	1087.72
741.26	1087.60
741.59	1089.43
741.92	1087.86
742.25	1084.89
742.58	1083.81
742.91	1087.23
743.25	1085.59
743.58	1085.66
743.91	1085.17
744.24	1081.42
744.57	1077.65
744.90	1078.43
745.23	1077.63
745.56	1077.11
745.89	1081.82
746.22	1084.16
746.55	1083.55
746.88	1085.54
747.21	1091.63
747.54	1089.96
747.87	1089.12
748.20	1091.18
748.53	1090.24
748.87	1086.43
749.20	1085.26
749.53	1086.08
749.86	1080.98
750.19	1081.80
750.52	1082.43
750.85	1084.09
751.18	1084.89
751.51	1087.04
751.84	1085.07
752.16	1081.54
752.49	1082.43
752.82	1081.58
753.15	1081.23
753.48	1081.91
753.81	1085.77
754.14	1084.72
754.47	1082.97
754.80	1084.81
755.13	1086.43
755.46	1084.56
755.79	1084.16
756.12	1090.24
756.45	1090.78
756.78	1088.44
757.11	1091.04
757.43	1092.80
757.76	1091.09
758.09	1090.78
758.42	1091.49
758.75	1088.33
759.08	1085.40
759.41	1081.94
759.74	1082.36
760.07	1082.90
760.39	1085.33
760.72	1087.44
761.05	1088.70
761.38	1087.67
761.71	1086.43
762.04	1084.56
762.36	1084.18
762.69	1084.32
763.02	1084.56
763.35	1087.11
763.68	1086.08
764.01	1085.91
764.33	1086.55
764.66	1089.00
764.99	1085.59
765.32	1084.04
765.65	1085.05
765.97	1084.58
766.30	1081.05
766.63	1082.99
766.96	1085.89
767.28	1086.06
767.61	1082.38
767.94	1084.00
768.27	1085.05
768.59	1087.25
768.92	1087.62
769.25	1090.74
769.58	1087.95
769.90	1083.86
770.23	1082.83
770.56	1078.03
770.89	1073.84
771.21	1074.89
771.54	1078.59
771.87	1077.91
772.19	1080.84
772.52	1085.38
772.85	1089.33
773.17	1088.35
773.50	1089.03
773.83	1090.01
774.15	1088.07
774.48	1085.68
774.81	1086.55
775.13	1088.21
775.46	1089.66
775.79	1089.43
776.11	1091.93
776.44	1092.21
776.77	1089.85
777.09	1089.19
777.42	1091.72
777.74	1088.84
778.07	1089.17
778.40	1093.12
778.72	1092.96
779.05	1088.89
779.37	1088.23
779.70	1088.79
780.03	1088.19
780.35	1089.12
780.68	1092.80
781.00	1091.95
781.33	1088.98
781.65	1087.37
781.98	1083.76
782.31	1085.26
782.63	1086.87
782.96	1087.13
783.28	1086.76
783.61	1089.26
783.93	1088.19
784.26	1085.94
784.58	1084.93
784.91	1083.32
785.23	1083.64
785.56	1081.96
785.88	1086.15
786.21	1089.29
786.53	1090.20
786.86	1088.68
787.18	1090.32
787.51	1088.91
787.83	1085.47
788.16	1085.94
788.48	1085.96
788.81	1081.68
789.13	1079.92
789.46	1081.80
789.78	1082.01
790.10	1079.48
790.43	1082.99
790.75	1086.85
791.08	1086.90
791.40	1084.84
791.73	1088.49
792.05	1090.53
792.37	1087.02
792.70	1087.58
793.02	1089.07
793.35	1087.65
793.67	1085.17
793.99	1085.40
794.32	1081.21
794.64	1079.95
794.96	1079.06
795.29	1080.48
795.61	1081.14
795.93	1088.56
796.26	1090.20
796.58	1089.71
796.91	1088.35
797.23	1087.55
797.55	1086.24
797.87	1084.00
798.20	1086.76
798.52	1089.64
798.84	1089.99
799.17	1089.45
799.49	1091.93
799.81	1089.31
800.14	1087.53
800.46	1089.19
800.78	1090.01
801.10	1092.00
801.43	1091.11
801.75	1090.03
802.07	1088.35
802.40	1087.34
802.72	1087.88
803.04	1093.47
803.36	1095.93
803.69	1097.10
804.01	1094.55
804.33	1090.20
804.65	1087.65
804.97	1084.96
805.30	1085.19
805.62	1085.63
805.94	1085.54
806.26	1085.82
806.58	1086.94
806.91	1087.67
807.23	1088.91
807.55	1091.25
807.87	1089.54
808.19	1086.87
808.52	1087.65
808.84	1085.33
809.16	1084.49
809.48	1083.67
809.80	1086.41
810.12	1080.16
810.44	1083.76
810.77	1085.40
811.09	1087.65
811.41	1087.04
811.73	1090.03
812.05	1089.80
812.37	1087.86
812.69	1088.77
813.01	1089.07
813.33	1089.85
813.66	1089.45
813.98	1088.91
814.30	1088.28
814.62	1086.83
814.94	1085.59
815.26	1085.54
815.58	1082.78
815.90	1081.05
816.22	1081.30
816.54	1083.74
816.86	1082.33
817.18	1085.63
817.50	1087.32
817.82	1086.59
818.14	1082.80
818.46	1084.07
818.78	1084.81
819.10	1082.24
819.42	1084.37
819.74	1084.51
820.06	1081.09
820.38	1080.20
820.70	1076.93
821.02	1075.50
821.34	1074.98
821.66	1076.34
821.98	1075.22
822.30	1079.97
822.62	1079.06
822.94	1079.76
823.26	1080.46
823.58	1080.51
823.90	1079.71
824.22	1080.91
824.54	1081.58
824.86	1082.15
825.18	1082.61
825.50	1083.15
825.81	1086.85
826.13	1087.69
826.45	1087.60
826.77	1086.73
827.09	1087.69
827.41	1085.54
827.73	1083.79
828.05	1082.05
828.36	1081.30
828.68	1082.90
829.00	1080.34
829.32	1083.18
829.64	1085.61
829.96	1089.33
830.28	1086.80
830.59	1089.85
830.91	1088.49
831.23	1087.83
831.55	1084.58
831.87	1084.49
832.19	1082.24
832.50	1081.68
832.82	1084.30
833.14	1086.29
833.46	1086.97
833.78	1084.65
834.09	1086.01
834.41	1085.31
834.73	1081.30
835.05	1080.74
835.36	1081.37
835.68	1079.43
836.00	1077.91
836.32	1080.70
836.63	1080.74
836.95	1083.01
837.27	1084.25
837.59	1084.16
837.90	1083.64
838.22	1083.90
838.54	1084.72
838.85	1084.04
839.17	1080.77
839.49	1082.90
839.80	1082.66
840.12	1085.87
840.44	1088.70
840.76	1092.14
841.07	1093.40
841.39	1092.63
841.71	1086.03
842.02	1087.41
842.34	1085.70
842.65	1083.20
842.97	1085.54
843.29	1090.67
843.60	1086.69
843.92	1089.47
844.24	1087.81
844.55	1083.15
844.87	1077.04
845.18	1078.31
845.50	1076.81
845.82	1076.51
846.13	1078.54
846.45	1082.57
846.76	1082.64
847.08	1081.63
847.40	1084.96
847.71	1086.73
848.03	1086.48
848.34	1086.57
848.66	1085.28
848.97	1084.98
849.29	1087.39
849.60	1085.12
849.92	1086.62
850.24	1090.50
850.55	1091.56
850.87	1091.20
851.18	1095.00
851.50	1092.91
851.81	1092.19
852.13	1090.22
852.44	1087.41
852.76	1084.28
853.07	1082.19
853.39	1080.91
853.70	1082.33
854.01	1083.22
854.33	1084.46
854.64	1085.94
854.96	1087.97
855.27	1088.63
855.59	1090.03
855.90	1090.08
856.22	1087.37
856.53	1081.91
856.84	1079.99
857.16	1076.93
857.47	1078.14
857.79	1083.62
858.10	1087.55
858.41	1089.19
858.73	1087.41
859.04	1084.79
859.36	1083.69
859.67	1082.36
859.98	1079.41
860.30	1083.64
860.61	1085.28
860.92	1084.14
861.24	1084.04
861.55	1086.55
861.87	1084.81
862.18	1083.50
862.49	1084.98
862.81	1087.06
863.12	1084.98
863.43	1085.52
863.74	1082.33
864.06	1079.55
864.37	1078.71
864.68	1078.68
865.00	1076.90
865.31	1080.74
865.62	1083.43
865.94	1082.03
866.25	1080.88
866.56	1083.57
866.87	1085.24
867.19	1083.29
867.50	1085.05
867.81	1085.75
868.12	1082.47
868.44	1079.08
868.75	1079.24
869.06	1078.82
869.37	1076.69
869.68	1077.04
870.00	1079.64
870.31	1079.22
870.62	1081.19
870.93	1087.04
871.24	1088.58
871.56	1086.83
871.87	1086.08
872.18	1083.88
872.49	1083.53
872.80	1081.56
873.12	1080.60
873.43	1077.86
873.74	1075.22
874.05	1075.22
874.36	1073.98
874.67	1077.04
874.98	1080.44
875.29	1082.17
875.61	1078.92
875.92	1082.69
876.23	1084.79
876.54	1083.97
876.85	1082.80
877.16	1085.59
877.47	1084.30
877.78	1079.03
878.09	1082.33
878.40	1084.93
878.72	1085.28
879.03	1084.89
879.34	1084.70
879.65	1081.12
879.96	1081.21
880.27	1080.70
880.58	1084.67
880.89	1088.14
881.20	1091.20
881.51	1090.22
881.82	1088.30
882.13	1084.39
882.44	1082.64
882.75	1079.22
883.06	1081.82
883.37	1081.77
883.68	1079.74
883.99	1079.10
884.30	1081.37
884.61	1078.10
884.92	1076.39
885.23	1076.83
885.54	1078.07
885.85	1077.82
886.16	1079.67
886.47	1079.53
886.78	1082.08
887.08	1083.06
887.39	1082.50
887.70	1081.82
888.01	1086.24
888.32	1084.32
888.63	1081.70
888.94	1077.72
889.25	1078.73
889.56	1077.86
889.87	1080.60
890.17	1079.97
890.48	1083.71
890.79	1084.72
891.10	1084.86
891.41	1084.14
891.72	1087.06
892.03	1088.26
892.34	1083.86
892.64	1083.25
892.95	1080.84
893.26	1080.39
893.57	1082.40
893.88	1082.47
894.18	1081.23
894.49	1084.46
894.80	1083.67
895.11	1081.26
895.42	1082.01
895.72	1085.38
896.03	1084.44
896.34	1084.07
896.65	1084.14
896.96	1087.04
897.26	1085.87
897.57	1085.84
897.88	1086.55
898.19	1085.96
898.49	1083.93
898.80	1081.63
899.11	1078.87
899.41	1080.95
899.72	1082.33
900.03	1080.32
900.34	1081.87
900.64	1086.08
900.95	1085.45
901.26	1085.35
901.56	1088.35
901.87	1085.96
902.18	1082.47
902.48	1079.69
902.79	1075.66
903.10	1073.23
903.40	1073.60
903.71	1075.01
904.02	1077.40
904.32	1079.57
904.63	1078.66
904.94	1076.81
905.24	1078.07
905.55	1077.16
905.85	1075.71
906.16	1076.81
906.47	1078.36
906.77	1078.71
907.08	1079.03
907.38	1083.95
907.69	1082.26
908.00	1084.25
908.30	1084.11
908.61	1085.84
908.91	1082.26
909.22	1086.69
909.52	1086.17
909.83	1083.95
910.14	1080.44
910.44	1081.35
910.75	1080.39
911.05	1078.45
911.36	1077.84
911.66	1077.30
911.97	1079.95
912.27	1080.51
912.58	1082.33
912.88	1083.32
913.19	1086.29
913.49	1082.71
913.80	1079.92
914.10	1080.81
914.41	1079.38
914.71	1078.43
915.01	1081.42
915.32	1087.04
915.62	1086.43
915.93	1091.74
916.23	1090.15
916.54	1086.01
916.84	1080.30
917.15	1078.28
917.45	1076.39
917.75	1078.50
918.06	1082.57
918.36	1085.21
918.67	1087.72
918.97	1085.07
919.27	1084.18
919.58	1079.43
919.88	1080.13
920.18	1076.86
920.49	1079.88
920.79	1080.02
921.10	1082.38
921.40	1081.87
921.70	1085.21
922.01	1083.67
922.31	1084.98
922.61	1083.43
922.92	1085.31
923.22	1082.66
923.52	1080.27
923.82	1078.73
924.13	1081.33
924.43	1079.17
924.73	1077.21
925.04	1077.58
925.34	1077.91
925.64	1076.39
925.94	1074.26
926.25	1077.77
926.55	1080.88
926.85	1081.73
927.15	1083.64
927.46	1085.26
927.76	1086.29
928.06	1085.19
928.36	1086.55
928.67	1085.10
928.97	1083.88
929.27	1084.39
929.57	1084.89
929.87	1083.11
930.18	1085.00
930.48	1087.62
930.78	1085.99
931.08	1084.93
931.38	1085.12
931.69	1082.45
931.99	1080.41
932.29	1077.79
932.59	1076.01
932.89	1075.64
933.19	1077.84
933.49	1078.14
933.80	1080.20
934.10	1082.83
934.40	1081.14
934.70	1080.48
935.00	1080.77
935.30	1080.13
935.60	1078.21
935.90	1080.70
936.20	1081.07
936.50	1083.36
936.81	1084.74
937.11	1086.99
937.41	1086.62
937.71	1086.24
938.01	1084.32
938.31	1081.63
938.61	1080.72
938.91	1080.72
939.21	1079.64
939.51	1079.15
939.81	1081.61
940.11	1082.03
940.41	1080.81
940.71	1080.70
941.01	1080.44
941.31	1083.36
941.61	1087.25
941.91	1087.13
942.21	1089.89
942.51	1090.99
942.81	1089.68
943.11	1084.42
943.41	1084.72
943.71	1083.01
944.01	1080.84
944.31	1076.67
944.61	1080.04
944.90	1078.59
945.20	1076.60
945.50	1075.17
945.80	1080.06
946.10	1077.72
946.40	1076.90
946.70	1078.14
947.00	1082.54
947.30	1081.89
947.60	1085.84
947.89	1088.93
948.19	1088.51
948.49	1087.32
948.79	1087.27
949.09	1082.24
949.39	1081.94
949.69	1082.29
949.98	1081.07
950.28	1081.09
950.58	1081.00
950.88	1080.27
951.18	1079.36
951.48	1079.81
951.77	1080.41
952.07	1082.01
952.37	1078.61
952.67	1081.33
952.97	1084.91
953.26	1084.07
953.56	1084.39
953.86	1089.07
954.16	1084.93
954.45	1079.43
954.75	1081.51
955.05	1077.75
955.35	1074.56
955.64	1076.37
955.94	1078.50
956.24	1075.15
956.54	1076.67
956.83	1078.82
957.13	1082.36
957.43	1082.43
957.72	1082.17
958.02	1084.21
958.32	1084.07
958.61	1080.58
958.91	1081.70
959.21	1081.54
959.50	1082.57
959.80	1081.09
960.10	1082.52
960.39	1080.51
960.69	1081.09
960.99	1077.16
961.28	1078.17
961.58	1079.83
961.87	1080.67
962.17	1079.85
962.47	1079.20
962.76	1077.33
963.06	1076.01
963.36	1077.56
963.65	1079.90
963.95	1083.74
964.24	1087.55
964.54	1084.86
964.83	1082.76
965.13	1080.41
965.42	1078.40
965.72	1077.47
966.02	1080.81
966.31	1081.05
966.61	1081.07
966.90	1081.35
967.20	1081.05
967.49	1082.83
967.79	1081.70
968.08	1082.08
968.38	1083.95
968.67	1083.29
968.97	1080.23
969.26	1082.05
969.56	1081.07
969.85	1080.16
970.15	1079.76
970.44	1081.40
970.74	1083.69
971.03	1085.91
971.32	1085.31
971.62	1086.43
971.91	1084.37
972.21	1082.40
972.50	1081.51
972.80	1083.39
973.09	1084.74
973.38	1086.10
973.68	1087.20
973.97	1087.46
974.27	1084.28
974.56	1080.60
974.85	1078.45
975.15	1077.65
975.44	1076.08
975.73	1079.29
976.03	1081.51
976.32	1080.98
976.61	1079.83
976.91	1077.98
977.20	1076.48
977.49	1076.32
977.79	1077.61
978.08	1075.83
978.37	1081.28
978.67	1082.64
978.96	1085.14
979.25	1086.78
979.55	1089.26
979.84	1088.33
980.13	1089.71
980.42	1085.91
980.72	1083.62
981.01	1082.69
981.30	1081.40
981.59	1079.03
981.89	1082.45
982.18	1083.83
982.47	1084.25
982.76	1082.45
983.06	1081.26
983.35	1079.22
983.64	1076.34
983.93	1076.74
984.22	1076.95
984.52	1077.79
984.81	1076.83
985.10	1081.37
985.39	1080.77
985.68	1082.40
985.97	1081.40
986.27	1079.43
986.56	1077.25
986.85	1075.97
987.14	1074.77
987.43	1076.15
987.72	1081.00
988.01	1078.94
988.31	1082.24
988.60	1084.74
988.89	1086.50
989.18	1085.24
989.47	1083.22
989.76	1082.08
990.05	1081.35
990.34	1078.85
990.63	1078.14
990.92	1084.51
991.21	1086.06
991.51	1084.60
991.80	1082.59
992.09	1083.53
992.38	1082.61
992.67	1083.67
992.96	1084.09
993.25	1084.46
993.54	1086.31
993.83	1085.91
994.12	1082.31
994.41	1081.91
994.70	1086.38
994.99	1084.84
995.28	1084.07
995.57	1082.66
995.86	1082.03
996.15	1079.60
996.44	1078.19
996.73	1079.90
997.02	1080.41
997.31	1079.69
997.59	1080.16
997.88	1080.72
998.17	1079.64
998.46	1080.88
998.75	1083.20
999.04	1083.93
999.33	1084.51
999.62	1084.96
999.91	1083.32
1000.20	1084.00
1000.49	1084.77
1000.77	1080.81
1001.06	1081.47
1001.35	1087.02
1001.64	1084.89
1001.93	1081.68
1002.22	1085.24
1002.51	1084.04
1002.79	1081.73
1003.08	1080.77
1003.37	1081.42
1003.66	1081.35
1003.95	1080.67
1004.23	1079.13
1004.52	1081.05
1004.81	1084.84
1005.10	1084.25
1005.39	1083.79
1005.67	1080.30
1005.96	1080.18
1006.25	1076.37
1006.54	1075.15
1006.83	1077.35
1007.11	1080.77
1007.40	1081.77
1007.69	1081.00
1007.97	1081.40
1008.26	1076.25
1008.55	1075.52
1008.84	1075.62
1009.12	1077.28
1009.41	1078.26
1009.70	1081.84
1009.98	1080.09
1010.27	1077.58
1010.56	1075.92
1010.85	1074.96
1011.13	1074.59
1011.42	1078.52
1011.71	1079.08
1011.99	1078.71
1012.28	1078.24
1012.56	1076.08
1012.85	1074.61
1013.14	1078.94
1013.42	1081.89
1013.71	1085.66
1014.00	1087.72
1014.28	1086.36
1014.57	1083.39
1014.85	1084.72
1015.14	1082.03
1015.43	1083.15
1015.71	1085.21
1016.00	1082.54
1016.28	1079.74
1016.57	1078.52
1016.85	1077.86
1017.14	1075.34
1017.43	1075.52
1017.71	1077.54
1018.00	1079.24
1018.28	1076.86
1018.57	1080.53
1018.85	1081.87
1019.14	1082.45
1019.42	1079.38
1019.71	1081.73
1019.99	1080.02
1020.28	1083.53
1020.56	1084.23
1020.85	1086.41
1021.13	1084.02
1021.42	1084.49
1021.70	1082.52
1021.99	1081.30
1022.27	1083.34
1022.55	1089.99
1022.84	1087.18
>>>>>End Processed Spectral Data<<<<<
