SpectraSuite Data File
++++++++++++++++++++++++++++++++++++
Date: Mon Aug 26 10:26:17 PDT 2019
User: corrico
Dark Spectrum Present: No
Reference Spectrum Present: No
Number of Sampled Component Spectra: 1
Spectrometers: USB2+H06089
Integration Time (usec): 10000 (USB2+H06089)
Spectra Averaged: 20 (USB2+H06089)
Boxcar Smoothing: 2 (USB2+H06089)
Correct for Electrical Dark: No (USB2+H06089)
Strobe/Lamp Enabled: No (USB2+H06089)
Correct for Detector Non-linearity: No (USB2+H06089)
Correct for Stray Light: No (USB2+H06089)
Number of Pixels in Processed Spectrum: 2048
>>>>>Begin Processed Spectral Data<<<<<
339.70	1033.35
340.07	1033.35
340.45	1003.79
340.82	980.85
341.19	956.16
341.57	929.97
341.94	915.85
342.31	908.55
342.69	903.03
343.06	900.54
343.43	900.83
343.81	903.61
344.18	906.91
344.55	912.06
344.93	915.34
345.30	921.02
345.67	928.65
346.04	933.03
346.42	943.70
346.79	954.19
347.16	961.26
347.54	970.22
347.91	977.97
348.28	984.41
348.65	995.66
349.03	1007.74
349.40	1014.06
349.77	1025.04
350.14	1034.59
350.52	1039.64
350.89	1047.67
351.26	1055.49
351.63	1057.88
352.01	1059.96
352.38	1066.16
352.75	1069.58
353.12	1070.84
353.50	1077.44
353.87	1083.97
354.24	1085.45
354.61	1086.85
354.98	1090.92
355.36	1091.63
355.73	1091.91
356.10	1092.35
356.47	1092.19
356.84	1092.84
357.22	1091.02
357.59	1090.24
357.96	1090.97
358.33	1091.70
358.70	1093.31
359.08	1094.67
359.45	1095.37
359.82	1093.90
360.19	1095.86
360.56	1089.57
360.94	1090.17
361.31	1086.69
361.68	1083.74
362.05	1078.75
362.42	1080.39
362.79	1079.48
363.16	1080.51
363.54	1083.36
363.91	1084.04
364.28	1085.49
364.65	1085.31
365.02	1083.97
365.39	1085.40
365.76	1086.06
366.14	1084.93
366.51	1085.12
366.88	1085.56
367.25	1081.02
367.62	1079.15
367.99	1078.26
368.36	1077.77
368.73	1079.57
369.10	1084.28
369.48	1087.67
369.85	1088.79
370.22	1088.28
370.59	1086.85
370.96	1084.39
371.33	1084.63
371.70	1080.32
372.07	1078.50
372.44	1077.35
372.81	1077.33
373.18	1075.03
373.55	1077.82
373.93	1078.05
374.30	1081.98
374.67	1084.49
375.04	1084.74
375.41	1088.28
375.78	1091.60
376.15	1086.92
376.52	1085.17
376.89	1085.99
377.26	1082.15
377.63	1077.91
378.00	1079.50
378.37	1079.74
378.74	1078.12
379.11	1078.94
379.48	1083.18
379.85	1084.04
380.22	1082.19
380.59	1082.08
380.96	1082.64
381.33	1083.29
381.70	1082.90
382.07	1084.70
382.44	1084.74
382.81	1084.49
383.18	1082.15
383.55	1085.66
383.92	1085.33
384.29	1085.66
384.66	1084.70
385.03	1083.64
385.40	1079.71
385.77	1079.31
386.14	1081.42
386.51	1081.96
386.88	1082.26
387.25	1086.59
387.62	1087.93
387.99	1085.38
388.36	1087.25
388.73	1088.37
389.10	1086.90
389.46	1088.23
389.83	1090.48
390.20	1092.94
390.57	1094.46
390.94	1094.01
391.31	1094.36
391.68	1092.21
392.05	1090.90
392.42	1090.32
392.79	1089.61
393.16	1093.26
393.53	1097.20
393.89	1097.10
394.26	1094.41
394.63	1091.79
395.00	1087.55
395.37	1082.92
395.74	1080.06
396.11	1082.71
396.48	1086.94
396.84	1087.11
397.21	1091.53
397.58	1093.64
397.95	1094.55
398.32	1093.10
398.69	1091.13
399.06	1090.22
399.42	1089.31
399.79	1089.19
400.16	1087.58
400.53	1088.98
400.90	1086.38
401.27	1088.93
401.64	1086.64
402.00	1090.53
402.37	1090.92
402.74	1092.98
403.11	1091.95
403.48	1095.04
403.84	1096.07
404.21	1094.67
404.58	1094.65
404.95	1095.02
405.32	1094.53
405.68	1093.26
406.05	1096.38
406.42	1098.23
406.79	1097.69
407.16	1096.00
407.52	1097.71
407.89	1098.04
408.26	1095.84
408.63	1096.17
408.99	1098.81
409.36	1098.06
409.73	1098.62
410.10	1100.71
410.47	1099.70
410.83	1099.70
411.20	1101.36
411.57	1097.90
411.94	1095.65
412.30	1098.27
412.67	1097.80
413.04	1096.70
413.40	1101.43
413.77	1107.21
414.14	1107.19
414.51	1110.40
414.87	1109.20
415.24	1106.28
415.61	1105.15
415.97	1103.70
416.34	1103.19
416.71	1105.51
417.08	1108.52
417.44	1108.13
417.81	1110.02
418.18	1107.28
418.54	1108.90
418.91	1106.56
419.28	1107.54
419.64	1108.71
420.01	1111.03
420.38	1111.71
420.74	1114.35
421.11	1112.53
421.48	1112.60
421.84	1113.98
422.21	1111.75
422.58	1112.08
422.94	1114.77
423.31	1115.52
423.68	1115.05
424.04	1114.82
424.41	1110.56
424.77	1109.46
425.14	1108.45
425.51	1109.18
425.87	1109.60
426.24	1112.20
426.61	1110.91
426.97	1115.34
427.34	1117.44
427.70	1120.30
428.07	1123.04
428.44	1122.99
428.80	1120.13
429.17	1119.78
429.53	1117.51
429.90	1115.66
430.27	1116.90
430.63	1114.77
431.00	1112.22
431.36	1111.22
431.73	1115.64
432.09	1118.28
432.46	1121.07
432.83	1122.80
433.19	1123.39
433.56	1117.93
433.92	1116.51
434.29	1113.98
434.65	1115.55
435.02	1114.68
435.38	1118.28
435.75	1118.24
436.11	1118.26
436.48	1118.82
436.84	1119.53
437.21	1115.05
437.57	1116.15
437.94	1115.99
438.30	1111.36
438.67	1111.59
439.03	1112.08
439.40	1111.01
439.76	1111.47
440.13	1112.41
440.49	1114.12
440.86	1116.58
441.22	1117.51
441.59	1117.49
441.95	1120.04
442.32	1118.94
442.68	1117.72
443.05	1114.35
443.41	1113.44
443.78	1111.73
444.14	1110.23
444.51	1110.14
444.87	1112.99
445.24	1111.59
445.60	1110.30
445.96	1112.55
446.33	1113.30
446.69	1112.90
447.06	1116.27
447.42	1116.44
447.79	1116.58
448.15	1116.67
448.51	1112.13
448.88	1112.85
449.24	1113.37
449.61	1111.47
449.97	1112.53
450.33	1115.92
450.70	1115.50
451.06	1116.32
451.43	1116.65
451.79	1116.83
452.15	1118.78
452.52	1120.79
452.88	1121.56
453.24	1121.16
453.61	1120.53
453.97	1119.95
454.34	1117.96
454.70	1117.61
455.06	1119.10
455.43	1118.24
455.79	1117.79
456.15	1115.45
456.52	1114.12
456.88	1113.65
457.24	1112.64
457.61	1112.18
457.97	1116.37
458.33	1117.32
458.70	1118.82
459.06	1122.75
459.42	1124.51
459.79	1122.80
460.15	1124.18
460.51	1125.17
460.88	1123.22
461.24	1124.88
461.60	1123.90
461.96	1123.88
462.33	1122.12
462.69	1121.84
463.05	1119.83
463.42	1120.44
463.78	1120.67
464.14	1122.36
464.50	1125.33
464.87	1126.97
465.23	1131.49
465.59	1131.23
465.95	1133.85
466.32	1135.84
466.68	1138.81
467.04	1139.72
467.40	1143.30
467.77	1141.78
468.13	1140.57
468.49	1140.59
468.85	1140.45
469.22	1145.25
469.58	1148.71
469.94	1151.94
470.30	1151.64
470.66	1156.18
471.03	1154.21
471.39	1156.67
471.75	1161.47
472.11	1161.96
472.47	1162.08
472.84	1169.54
473.20	1173.64
473.56	1172.70
473.92	1180.80
474.28	1187.03
474.65	1187.19
475.01	1189.95
475.37	1200.65
475.73	1205.75
476.09	1207.51
476.45	1209.57
476.81	1215.16
477.18	1216.82
477.54	1222.79
477.90	1230.89
478.26	1241.86
478.62	1247.41
478.98	1253.92
479.34	1265.76
479.71	1275.92
480.07	1287.93
480.43	1301.69
480.79	1317.14
481.15	1326.24
481.51	1331.72
481.87	1342.98
482.23	1360.86
482.59	1376.82
482.96	1393.02
483.32	1416.87
483.68	1434.70
484.04	1450.24
484.40	1466.28
484.76	1486.61
485.12	1509.97
485.48	1536.35
485.84	1562.40
486.20	1587.91
486.56	1617.17
486.92	1644.98
487.28	1672.87
487.64	1704.31
488.00	1740.40
488.37	1777.47
488.73	1817.78
489.09	1860.23
489.45	1901.78
489.81	1948.73
490.17	1995.10
490.53	2044.18
490.89	2096.49
491.25	2148.45
491.61	2205.79
491.97	2264.40
492.33	2323.68
492.69	2385.71
493.05	2454.87
493.41	2523.94
493.77	2602.18
494.13	2689.42
494.49	2772.97
494.85	2861.42
495.21	2952.38
495.57	3050.21
495.93	3146.97
496.29	3252.85
496.64	3369.69
497.00	3493.81
497.36	3612.22
497.72	3744.69
498.08	3895.96
498.44	4057.04
498.80	4218.28
499.16	4400.96
499.52	4587.89
499.88	4764.53
500.24	4944.71
500.60	5133.31
500.96	5325.37
501.32	5518.21
501.68	5727.13
502.03	5946.06
502.39	6186.41
502.75	6430.79
503.11	6720.26
503.47	7020.02
503.83	7339.17
504.19	7649.29
504.55	8001.68
504.91	8332.31
505.26	8674.35
505.62	9062.25
505.98	9496.47
506.34	9910.58
506.70	10353.99
507.06	10853.70
507.42	11334.93
507.78	11822.09
508.13	12378.06
508.49	12944.40
508.85	13520.64
509.21	14128.92
509.57	14763.63
509.93	15397.17
510.28	16059.61
510.64	16797.11
511.00	17524.92
511.36	18283.14
511.72	19093.69
512.07	19991.87
512.43	20846.05
512.79	21801.76
513.15	22740.32
513.51	23595.43
513.86	24434.09
514.22	25397.22
514.58	26368.85
514.94	27349.35
515.30	28453.17
515.65	29618.82
516.01	30652.69
516.37	31661.97
516.73	32734.17
517.08	33703.57
517.44	34523.16
517.80	35457.43
518.16	36396.83
518.51	37323.91
518.87	38277.21
519.23	39351.19
519.59	40355.89
519.94	41393.78
520.30	42405.05
520.66	43292.09
521.01	44140.77
521.37	44995.30
521.73	45679.88
522.09	46277.52
522.44	47048.42
522.80	47625.22
523.16	47975.69
523.51	48268.38
523.87	48640.19
524.23	48969.74
524.58	49264.58
524.94	49655.68
525.30	50007.30
525.65	50189.14
526.01	50169.06
526.37	50316.60
526.72	50484.68
527.08	50516.65
527.44	50424.85
527.79	50309.58
528.15	50112.06
528.51	49774.09
528.86	49535.21
529.22	49204.10
529.58	48815.50
529.93	48393.97
530.29	47829.08
530.65	47292.89
531.00	46864.87
531.36	46295.61
531.71	45664.32
532.07	45208.78
532.43	44483.43
532.78	43664.75
533.14	43043.48
533.49	42335.75
533.85	41552.35
534.21	40957.25
534.56	40452.86
534.92	39769.33
535.27	39082.24
535.63	38300.50
535.98	37508.23
536.34	36661.19
536.69	35905.88
537.05	35193.96
537.41	34587.17
537.76	33968.38
538.12	33245.34
538.47	32580.23
538.83	31980.21
539.18	31352.44
539.54	30711.69
539.89	30207.31
540.25	29720.45
540.60	29159.92
540.96	28549.67
541.31	28017.78
541.67	27607.93
542.02	27124.44
542.38	26686.27
542.73	26230.55
543.09	25724.03
543.44	25143.63
543.80	24625.69
544.15	24090.78
544.51	23700.48
544.86	23288.63
545.22	22912.21
545.57	22510.85
545.93	22070.90
546.28	21598.14
546.64	21210.92
546.99	20803.10
547.35	20398.12
547.70	20022.53
548.05	19613.60
548.41	19185.23
548.76	18711.09
549.12	18271.67
549.47	17879.84
549.83	17534.29
550.18	17159.97
550.53	16798.68
550.89	16419.00
551.24	16003.48
551.60	15629.37
551.95	15308.30
552.30	15018.54
552.66	14771.82
553.01	14544.53
553.37	14264.47
553.72	13949.83
554.07	13650.82
554.43	13341.87
554.78	13011.06
555.13	12700.94
555.49	12377.69
555.84	12072.39
556.19	11771.44
556.55	11470.59
556.90	11176.71
557.26	10961.97
557.61	10757.41
557.96	10533.39
558.32	10313.20
558.67	10096.21
559.02	9847.24
559.37	9601.58
559.73	9400.46
560.08	9214.76
560.43	9018.58
560.79	8808.86
561.14	8598.94
561.49	8376.66
561.85	8167.42
562.20	7984.88
562.55	7844.05
562.90	7675.34
563.26	7520.47
563.61	7377.51
563.96	7203.05
564.32	7004.99
564.67	6839.19
565.02	6693.77
565.37	6554.23
565.73	6408.55
566.08	6278.44
566.43	6153.41
566.78	6007.27
567.14	5861.78
567.49	5748.31
567.84	5625.10
568.19	5501.50
568.54	5393.67
568.90	5297.80
569.25	5206.33
569.60	5116.20
569.95	5041.42
570.31	4959.36
570.66	4860.85
571.01	4752.55
571.36	4656.14
571.71	4556.06
572.06	4462.09
572.42	4379.12
572.77	4293.55
573.12	4216.55
573.47	4144.04
573.82	4085.48
574.18	4015.12
574.53	3949.89
574.88	3895.03
575.23	3822.38
575.58	3736.62
575.93	3661.72
576.28	3591.32
576.64	3523.09
576.99	3455.99
577.34	3391.90
577.69	3329.86
578.04	3265.80
578.39	3199.42
578.74	3142.01
579.09	3081.39
579.44	3027.06
579.80	2973.79
580.15	2926.07
580.50	2876.40
580.85	2833.27
581.20	2786.31
581.55	2747.46
581.90	2699.06
582.25	2658.71
582.60	2612.93
582.95	2572.90
583.30	2530.99
583.65	2493.16
584.00	2448.39
584.35	2416.39
584.71	2381.19
585.06	2353.01
585.41	2325.18
585.76	2298.29
586.11	2264.47
586.46	2235.52
586.81	2200.06
587.16	2167.83
587.51	2140.77
587.86	2119.40
588.21	2095.60
588.56	2074.18
588.91	2047.88
589.26	2023.14
589.61	2000.03
589.96	1975.62
590.31	1950.74
590.66	1930.05
591.01	1910.16
591.36	1885.07
591.71	1863.75
592.06	1842.89
592.41	1823.00
592.76	1806.45
593.10	1787.96
593.45	1770.62
593.80	1755.33
594.15	1742.11
594.50	1724.62
594.85	1712.31
595.20	1696.72
595.55	1681.63
595.90	1663.72
596.25	1648.49
596.60	1633.02
596.95	1621.52
597.30	1609.54
597.64	1647.81
597.99	1636.32
598.34	1624.45
598.69	1612.84
599.04	1601.82
599.39	1541.50
599.74	1531.04
600.09	1522.07
600.44	1508.71
600.78	1501.13
601.13	1493.31
601.48	1486.78
601.83	1481.00
602.18	1473.09
602.53	1459.72
602.88	1450.27
603.22	1436.25
603.57	1423.23
603.92	1416.09
604.27	1409.52
604.62	1403.27
604.97	1398.21
605.31	1394.28
605.66	1387.35
606.01	1379.44
606.36	1371.69
606.71	1364.16
607.05	1355.71
607.40	1349.48
607.75	1343.84
608.10	1336.26
608.44	1330.31
608.79	1322.71
609.14	1314.05
609.49	1310.26
609.84	1305.41
610.18	1302.84
610.53	1302.51
610.88	1301.34
611.23	1296.00
611.57	1292.33
611.92	1286.26
612.27	1281.12
612.62	1273.04
612.96	1266.16
613.31	1262.95
613.66	1262.30
614.00	1255.09
614.35	1251.95
614.70	1248.98
615.05	1244.86
615.39	1241.98
615.74	1239.69
616.09	1236.72
616.43	1234.80
616.78	1230.09
617.13	1223.66
617.47	1219.21
617.82	1216.63
618.17	1209.96
618.51	1207.79
618.86	1205.33
619.21	1205.89
619.55	1204.49
619.90	1202.64
620.25	1198.64
620.59	1194.07
620.94	1186.18
621.29	1185.74
621.63	1183.26
621.98	1181.71
622.32	1178.86
622.67	1177.52
623.02	1170.97
623.36	1168.96
623.71	1167.20
624.05	1164.98
624.40	1168.21
624.75	1169.14
625.09	1168.37
625.44	1164.88
625.78	1167.65
626.13	1161.09
626.48	1155.59
626.82	1154.16
627.17	1154.98
627.51	1151.08
627.86	1152.04
628.20	1153.93
628.55	1151.87
628.89	1151.66
629.24	1148.88
629.58	1145.25
629.93	1142.02
630.28	1142.35
630.62	1141.08
630.97	1142.98
631.31	1143.73
631.66	1140.38
632.00	1135.37
632.35	1131.58
632.69	1128.51
633.04	1126.85
633.38	1131.84
633.73	1134.11
634.07	1134.74
634.42	1134.60
634.76	1132.44
635.11	1129.78
635.45	1126.92
635.79	1123.32
636.14	1119.78
636.48	1122.26
636.83	1119.60
637.17	1118.33
637.52	1119.43
637.86	1119.97
638.21	1117.98
638.55	1118.45
638.89	1119.36
639.24	1115.85
639.58	1117.49
639.93	1117.09
640.27	1119.90
640.61	1119.29
640.96	1121.00
641.30	1120.23
641.65	1119.74
641.99	1115.92
642.33	1118.45
642.68	1118.73
643.02	1119.83
643.37	1119.48
643.71	1117.93
644.05	1118.40
644.40	1117.37
644.74	1114.63
645.08	1113.09
645.43	1113.56
645.77	1109.16
646.11	1108.74
646.46	1108.38
646.80	1111.33
647.14	1112.69
647.49	1112.20
647.83	1112.85
648.17	1113.14
648.52	1109.51
648.86	1105.60
649.20	1107.40
649.55	1107.31
649.89	1105.44
650.23	1106.42
650.57	1107.21
650.92	1105.74
651.26	1105.72
651.60	1107.42
651.95	1107.49
652.29	1107.14
652.63	1105.36
652.97	1106.98
653.32	1106.21
653.66	1104.66
654.00	1103.84
654.34	1103.49
654.69	1097.36
655.03	1095.04
655.37	1098.16
655.71	1099.07
656.05	1101.90
656.40	1105.04
656.74	1103.16
657.08	1098.62
657.42	1098.53
657.76	1095.70
658.11	1094.48
658.45	1096.14
658.79	1098.04
659.13	1097.71
659.47	1096.47
659.82	1096.99
660.16	1098.11
660.50	1097.62
660.84	1096.28
661.18	1100.52
661.52	1099.93
661.87	1100.99
662.21	1099.49
662.55	1099.09
662.89	1095.35
663.23	1091.93
663.57	1091.79
663.91	1096.14
664.25	1098.83
664.60	1100.31
664.94	1103.14
665.28	1100.57
665.62	1094.86
665.96	1093.92
666.30	1093.36
666.64	1094.27
666.98	1095.32
667.32	1098.65
667.66	1101.13
668.01	1101.08
668.35	1100.40
668.69	1100.50
669.03	1100.36
669.37	1096.85
669.71	1096.54
670.05	1093.99
670.39	1091.91
670.73	1094.01
671.07	1093.59
671.41	1092.73
671.75	1094.57
672.09	1094.15
672.43	1090.55
672.77	1089.61
673.11	1089.78
673.45	1089.94
673.79	1092.33
674.13	1092.77
674.47	1094.69
674.81	1098.51
675.15	1095.89
675.49	1096.31
675.83	1095.18
676.17	1095.79
676.51	1093.22
676.85	1096.66
677.19	1094.43
677.53	1095.39
677.87	1091.79
678.21	1091.42
678.55	1089.26
678.89	1088.56
679.23	1087.09
679.57	1091.16
679.90	1089.75
680.24	1090.08
680.58	1093.92
680.92	1095.51
681.26	1094.53
681.60	1093.97
681.94	1096.12
682.28	1093.43
682.62	1092.84
682.96	1091.06
683.29	1090.85
683.63	1093.05
683.97	1093.40
684.31	1094.01
684.65	1094.74
684.99	1097.48
685.33	1095.23
685.67	1093.59
686.00	1092.80
686.34	1091.25
686.68	1091.16
687.02	1089.52
687.36	1088.91
687.70	1092.30
688.03	1093.76
688.37	1092.21
688.71	1092.09
689.05	1093.57
689.39	1088.79
689.72	1087.74
690.06	1087.09
690.40	1088.16
690.74	1089.59
691.08	1091.18
691.41	1091.32
691.75	1091.13
692.09	1092.37
692.43	1091.37
692.76	1090.71
693.10	1090.53
693.44	1090.55
693.78	1089.19
694.11	1093.64
694.45	1095.30
694.79	1095.86
695.13	1099.65
695.46	1096.52
695.80	1090.50
696.14	1089.50
696.48	1089.87
696.81	1084.86
697.15	1086.31
697.49	1088.51
697.82	1085.35
698.16	1084.37
698.50	1087.81
698.83	1088.82
699.17	1089.57
699.51	1089.87
699.84	1091.56
700.18	1091.11
700.52	1091.74
700.85	1088.82
701.19	1089.85
701.53	1089.52
701.86	1088.82
702.20	1088.37
702.54	1090.62
702.87	1094.90
703.21	1094.06
703.55	1095.77
703.88	1096.42
704.22	1096.40
704.55	1094.74
704.89	1096.75
705.23	1096.87
705.56	1098.62
705.90	1098.44
706.23	1096.68
706.57	1093.59
706.91	1091.25
707.24	1088.54
707.58	1087.46
707.91	1089.40
708.25	1090.48
708.58	1092.61
708.92	1093.31
709.26	1096.68
709.59	1093.45
709.93	1095.42
710.26	1096.35
710.60	1093.69
710.93	1093.80
711.27	1095.53
711.60	1093.83
711.94	1087.69
712.27	1088.96
712.61	1087.97
712.94	1090.06
713.28	1088.40
713.61	1092.00
713.95	1093.80
714.28	1090.08
714.62	1087.30
714.95	1089.87
715.29	1089.50
715.62	1088.02
715.96	1086.69
716.29	1090.69
716.63	1088.09
716.96	1088.33
717.29	1091.16
717.63	1094.22
717.96	1092.89
718.30	1097.92
718.63	1099.37
718.97	1098.37
719.30	1099.49
719.63	1096.56
719.97	1093.71
720.30	1094.34
720.64	1093.50
720.97	1093.76
721.30	1094.50
721.64	1094.08
721.97	1094.18
722.31	1090.48
722.64	1091.04
722.97	1091.06
723.31	1091.49
723.64	1089.50
723.97	1094.97
724.31	1091.72
724.64	1090.22
724.98	1087.60
725.31	1087.76
725.64	1085.17
725.98	1089.10
726.31	1091.60
726.64	1094.67
726.97	1094.48
727.31	1094.15
727.64	1091.30
727.97	1091.98
728.31	1089.99
728.64	1089.94
728.97	1090.71
729.31	1089.33
729.64	1087.32
729.97	1087.83
730.30	1083.88
730.64	1083.34
730.97	1085.05
731.30	1084.79
731.63	1086.80
731.97	1089.80
732.30	1089.75
732.63	1090.39
732.96	1091.11
733.30	1088.75
733.63	1090.76
733.96	1092.28
734.29	1092.89
734.63	1092.33
734.96	1094.55
735.29	1091.86
735.62	1088.65
735.95	1087.67
736.29	1087.51
736.62	1087.27
736.95	1085.99
737.28	1087.62
737.61	1086.99
737.94	1087.53
738.28	1082.90
738.61	1085.80
738.94	1082.26
739.27	1081.09
739.60	1077.96
739.93	1080.98
740.27	1080.46
740.60	1082.94
740.93	1083.71
741.26	1085.28
741.59	1085.24
741.92	1087.58
742.25	1090.39
742.58	1092.75
742.91	1093.55
743.25	1094.29
743.58	1092.52
743.91	1087.32
744.24	1084.51
744.57	1088.77
744.90	1088.23
745.23	1089.19
745.56	1091.32
745.89	1091.79
746.22	1088.02
746.55	1084.44
746.88	1082.78
747.21	1083.08
747.54	1084.77
747.87	1085.26
748.20	1091.20
748.53	1089.94
748.87	1090.76
749.20	1085.52
749.53	1084.39
749.86	1084.49
750.19	1088.28
750.52	1084.89
750.85	1087.90
751.18	1086.87
751.51	1084.30
751.84	1084.30
752.16	1085.56
752.49	1085.54
752.82	1087.95
753.15	1087.13
753.48	1083.86
753.81	1087.72
754.14	1088.30
754.47	1086.90
754.80	1087.65
755.13	1087.69
755.46	1087.16
755.79	1086.38
756.12	1088.72
756.45	1088.89
756.78	1088.63
757.11	1086.15
757.43	1086.94
757.76	1086.27
758.09	1088.14
758.42	1086.38
758.75	1086.73
759.08	1088.47
759.41	1086.24
759.74	1085.28
760.07	1088.86
760.39	1090.36
760.72	1090.24
761.05	1090.88
761.38	1090.62
761.71	1088.82
762.04	1087.51
762.36	1083.41
762.69	1082.59
763.02	1082.43
763.35	1082.33
763.68	1083.46
764.01	1087.81
764.33	1088.61
764.66	1087.46
764.99	1090.76
765.32	1091.77
765.65	1085.56
765.97	1086.38
766.30	1089.19
766.63	1090.06
766.96	1088.70
767.28	1093.59
767.61	1092.73
767.94	1089.99
768.27	1088.07
768.59	1090.27
768.92	1092.68
769.25	1092.59
769.58	1093.87
769.90	1094.13
770.23	1094.55
770.56	1092.61
770.89	1091.86
771.21	1091.02
771.54	1091.86
771.87	1090.01
772.19	1086.48
772.52	1087.18
772.85	1087.44
773.17	1084.28
773.50	1083.67
773.83	1086.64
774.15	1087.37
774.48	1086.06
774.81	1087.04
775.13	1087.04
775.46	1085.00
775.79	1083.27
776.11	1083.34
776.44	1082.78
776.77	1081.87
777.09	1082.61
777.42	1082.73
777.74	1080.46
778.07	1080.34
778.40	1082.64
778.72	1084.11
779.05	1083.08
779.37	1084.07
779.70	1083.62
780.03	1080.91
780.35	1081.23
780.68	1084.09
781.00	1084.04
781.33	1086.01
781.65	1086.03
781.98	1087.72
782.31	1087.95
782.63	1089.05
782.96	1087.90
783.28	1090.39
783.61	1089.73
783.93	1088.68
784.26	1093.03
784.58	1091.46
784.91	1091.70
785.23	1087.27
785.56	1088.26
785.88	1086.71
786.21	1092.70
786.53	1090.90
786.86	1093.19
787.18	1091.86
787.51	1091.06
787.83	1088.21
788.16	1088.35
788.48	1088.89
788.81	1087.53
789.13	1083.25
789.46	1082.33
789.78	1079.90
790.10	1075.10
790.43	1075.87
790.75	1078.82
791.08	1077.51
791.40	1079.74
791.73	1088.44
792.05	1090.69
792.37	1089.43
792.70	1089.43
793.02	1090.76
793.35	1084.28
793.67	1082.26
793.99	1083.50
794.32	1085.91
794.64	1082.80
794.96	1087.58
795.29	1087.13
795.61	1086.34
795.93	1084.49
796.26	1086.50
796.58	1083.74
796.91	1086.34
797.23	1089.71
797.55	1089.17
797.87	1090.20
798.20	1089.47
798.52	1085.40
798.84	1083.62
799.17	1082.38
799.49	1079.64
799.81	1081.44
800.14	1081.94
800.46	1084.35
800.78	1085.54
801.10	1086.36
801.43	1087.13
801.75	1089.52
802.07	1089.71
802.40	1088.72
802.72	1087.62
803.04	1083.69
803.36	1082.73
803.69	1080.37
804.01	1081.19
804.33	1082.22
804.65	1089.31
804.97	1090.06
805.30	1089.68
805.62	1091.60
805.94	1094.11
806.26	1091.37
806.58	1089.10
806.91	1088.56
807.23	1085.91
807.55	1082.36
807.87	1079.27
808.19	1081.56
808.52	1082.57
808.84	1086.17
809.16	1088.14
809.48	1087.16
809.80	1085.05
810.12	1082.17
810.44	1082.83
810.77	1084.51
811.09	1085.54
811.41	1087.62
811.73	1089.00
812.05	1089.64
812.37	1085.77
812.69	1090.88
813.01	1089.07
813.33	1091.16
813.66	1089.45
813.98	1089.80
814.30	1086.55
814.62	1087.90
814.94	1085.96
815.26	1086.87
815.58	1088.82
815.90	1088.16
816.22	1086.34
816.54	1086.13
816.86	1083.53
817.18	1083.18
817.50	1082.78
817.82	1083.86
818.14	1084.86
818.46	1083.69
818.78	1085.56
819.10	1084.60
819.42	1087.11
819.74	1085.19
820.06	1088.77
820.38	1086.48
820.70	1086.73
821.02	1084.58
821.34	1086.15
821.66	1084.67
821.98	1085.24
822.30	1085.03
822.62	1087.04
822.94	1085.87
823.26	1085.05
823.58	1084.72
823.90	1083.32
824.22	1079.29
824.54	1080.58
824.86	1081.91
825.18	1081.33
825.50	1083.55
825.81	1087.86
826.13	1085.49
826.45	1085.28
826.77	1087.25
827.09	1082.71
827.41	1077.30
827.73	1078.61
828.05	1075.71
828.36	1075.17
828.68	1080.34
829.00	1089.31
829.32	1086.22
829.64	1089.78
829.96	1090.17
830.28	1088.04
830.59	1082.38
830.91	1086.55
831.23	1084.98
831.55	1081.89
831.87	1084.23
832.19	1084.96
832.50	1082.57
832.82	1081.82
833.14	1084.49
833.46	1081.16
833.78	1082.15
834.09	1083.64
834.41	1082.73
834.73	1080.25
835.05	1081.84
835.36	1080.53
835.68	1081.23
836.00	1084.16
836.32	1085.75
836.63	1088.37
836.95	1088.96
837.27	1088.72
837.59	1087.79
837.90	1088.49
838.22	1085.70
838.54	1084.39
838.85	1084.39
839.17	1085.54
839.49	1085.63
839.80	1083.53
840.12	1084.18
840.44	1083.74
840.76	1083.41
841.07	1081.33
841.39	1085.12
841.71	1085.03
842.02	1088.56
842.34	1090.78
842.65	1090.15
842.97	1090.64
843.29	1092.30
843.60	1088.63
843.92	1084.00
844.24	1086.55
844.55	1085.63
844.87	1081.98
845.18	1081.12
845.50	1084.86
845.82	1083.25
846.13	1079.69
846.45	1080.16
846.76	1081.91
847.08	1077.49
847.40	1078.03
847.71	1077.86
848.03	1080.46
848.34	1080.60
848.66	1084.72
848.97	1086.66
849.29	1092.68
849.60	1091.63
849.92	1092.40
850.24	1091.70
850.55	1090.76
850.87	1088.96
851.18	1086.64
851.50	1084.67
851.81	1081.51
852.13	1079.55
852.44	1079.17
852.76	1079.08
853.07	1081.58
853.39	1083.50
853.70	1085.80
854.01	1083.90
854.33	1088.30
854.64	1087.18
854.96	1088.93
855.27	1087.65
855.59	1088.09
855.90	1086.73
856.22	1085.73
856.53	1084.72
856.84	1085.17
857.16	1085.77
857.47	1085.12
857.79	1085.42
858.10	1081.30
858.41	1080.02
858.73	1083.57
859.04	1083.71
859.36	1080.81
859.67	1081.91
859.98	1081.56
860.30	1076.97
860.61	1078.00
860.92	1081.14
861.24	1084.28
861.55	1085.24
861.87	1087.20
862.18	1083.25
862.49	1082.10
862.81	1082.24
863.12	1084.93
863.43	1086.71
863.74	1090.08
864.06	1091.84
864.37	1090.17
864.68	1090.71
865.00	1087.95
865.31	1086.69
865.62	1086.64
865.94	1086.50
866.25	1084.23
866.56	1084.67
866.87	1086.52
867.19	1085.35
867.50	1086.22
867.81	1088.49
868.12	1086.31
868.44	1084.30
868.75	1085.66
869.06	1085.07
869.37	1084.53
869.68	1086.27
870.00	1086.52
870.31	1085.07
870.62	1085.59
870.93	1084.89
871.24	1087.93
871.56	1088.65
871.87	1090.50
872.18	1086.94
872.49	1086.73
872.80	1083.74
873.12	1085.84
873.43	1084.84
873.74	1086.55
874.05	1084.93
874.36	1083.97
874.67	1083.48
874.98	1085.31
875.29	1083.13
875.61	1083.06
875.92	1080.60
876.23	1077.93
876.54	1076.55
876.85	1082.54
877.16	1083.43
877.47	1086.90
877.78	1085.94
878.09	1085.19
878.40	1082.90
878.72	1081.16
879.03	1081.07
879.34	1080.20
879.65	1078.26
879.96	1075.78
880.27	1077.28
880.58	1076.37
880.89	1081.44
881.20	1083.08
881.51	1084.09
881.82	1081.37
882.13	1082.26
882.44	1079.97
882.75	1079.46
883.06	1083.41
883.37	1086.97
883.68	1088.75
883.99	1088.65
884.30	1088.23
884.61	1083.41
884.92	1081.16
885.23	1081.73
885.54	1082.66
885.85	1083.86
886.16	1086.24
886.47	1085.38
886.78	1082.45
887.08	1082.31
887.39	1082.33
887.70	1082.69
888.01	1081.54
888.32	1083.83
888.63	1080.67
888.94	1081.98
889.25	1084.07
889.56	1086.52
889.87	1085.75
890.17	1088.04
890.48	1086.62
890.79	1083.11
891.10	1084.89
891.41	1085.33
891.72	1085.63
892.03	1086.73
892.34	1087.95
892.64	1086.48
892.95	1084.00
893.26	1083.22
893.57	1082.78
893.88	1083.01
894.18	1084.49
894.49	1086.01
894.80	1086.78
895.11	1086.85
895.42	1085.77
895.72	1087.11
896.03	1083.86
896.34	1082.08
896.65	1079.64
896.96	1077.44
897.26	1073.93
897.57	1077.18
897.88	1079.29
898.19	1084.23
898.49	1083.64
898.80	1085.68
899.11	1084.86
899.41	1080.58
899.72	1077.47
900.03	1078.14
900.34	1079.62
900.64	1077.42
900.95	1081.61
901.26	1083.53
901.56	1086.20
901.87	1082.87
902.18	1086.90
902.48	1084.63
902.79	1083.11
903.10	1084.09
903.40	1084.86
903.71	1086.94
904.02	1086.71
904.32	1085.35
904.63	1084.79
904.94	1085.28
905.24	1083.81
905.55	1082.57
905.85	1084.07
906.16	1085.31
906.47	1087.34
906.77	1085.03
907.08	1090.32
907.38	1092.23
907.69	1090.53
908.00	1086.55
908.30	1086.48
908.61	1085.35
908.91	1081.49
909.22	1078.64
909.52	1081.87
909.83	1082.17
910.14	1080.74
910.44	1083.13
910.75	1088.51
911.05	1088.16
911.36	1088.00
911.66	1087.90
911.97	1086.73
912.27	1081.16
912.58	1077.77
912.88	1078.85
913.19	1078.94
913.49	1079.41
913.80	1081.54
914.10	1082.73
914.41	1084.60
914.71	1085.45
915.01	1087.18
915.32	1086.10
915.62	1088.91
915.93	1086.22
916.23	1085.10
916.54	1082.36
916.84	1084.49
917.15	1085.38
917.45	1088.86
917.75	1088.21
918.06	1088.30
918.36	1087.79
918.67	1087.30
918.97	1084.14
919.27	1084.37
919.58	1083.93
919.88	1084.07
920.18	1082.57
920.49	1084.32
920.79	1086.87
921.10	1090.48
921.40	1089.19
921.70	1085.73
922.01	1085.56
922.31	1084.00
922.61	1081.73
922.92	1085.82
923.22	1088.49
923.52	1085.73
923.82	1086.17
924.13	1086.36
924.43	1082.01
924.73	1083.71
925.04	1084.53
925.34	1082.38
925.64	1080.20
925.94	1079.22
926.25	1077.86
926.55	1079.03
926.85	1080.70
927.15	1080.39
927.46	1081.40
927.76	1078.07
928.06	1077.28
928.36	1077.23
928.67	1076.93
928.97	1079.57
929.27	1079.74
929.57	1080.84
929.87	1083.15
930.18	1085.26
930.48	1086.34
930.78	1089.57
931.08	1086.87
931.38	1080.88
931.69	1081.00
931.99	1080.91
932.29	1080.04
932.59	1081.84
932.89	1087.67
933.19	1092.09
933.49	1086.80
933.80	1087.27
934.10	1086.83
934.40	1085.35
934.70	1084.18
935.00	1086.97
935.30	1084.25
935.60	1086.29
935.90	1086.38
936.20	1081.75
936.50	1080.41
936.81	1082.64
937.11	1080.67
937.41	1081.61
937.71	1083.64
938.01	1086.08
938.31	1087.20
938.61	1088.35
938.91	1086.55
939.21	1085.63
939.51	1085.24
939.81	1087.18
940.11	1087.65
940.41	1088.35
940.71	1089.07
941.01	1089.33
941.31	1087.32
941.61	1087.65
941.91	1086.34
942.21	1085.84
942.51	1084.60
942.81	1083.41
943.11	1081.58
943.41	1080.53
943.71	1082.47
944.01	1081.70
944.31	1083.06
944.61	1080.32
944.90	1082.78
945.20	1078.54
945.50	1077.47
945.80	1077.54
946.10	1080.84
946.40	1080.16
946.70	1082.94
947.00	1083.64
947.30	1082.08
947.60	1081.23
947.89	1085.77
948.19	1086.55
948.49	1085.03
948.79	1083.06
949.09	1082.66
949.39	1080.95
949.69	1079.55
949.98	1082.83
950.28	1083.67
950.58	1084.77
950.88	1082.99
951.18	1082.57
951.48	1082.61
951.77	1084.96
952.07	1083.57
952.37	1083.13
952.67	1084.09
952.97	1085.45
953.26	1084.16
953.56	1083.90
953.86	1081.68
954.16	1082.97
954.45	1081.98
954.75	1082.59
955.05	1082.45
955.35	1083.57
955.64	1082.10
955.94	1084.60
956.24	1085.89
956.54	1086.06
956.83	1086.15
957.13	1084.18
957.43	1083.62
957.72	1081.68
958.02	1082.40
958.32	1081.28
958.61	1085.17
958.91	1082.45
959.21	1081.42
959.50	1081.49
959.80	1084.18
960.10	1083.41
960.39	1084.30
960.69	1084.02
960.99	1083.55
961.28	1082.19
961.58	1079.64
961.87	1077.54
962.17	1081.35
962.47	1082.17
962.76	1083.36
963.06	1086.69
963.36	1090.55
963.65	1089.31
963.95	1088.65
964.24	1087.74
964.54	1088.54
964.83	1084.74
965.13	1083.64
965.42	1084.18
965.72	1084.09
966.02	1081.26
966.31	1080.04
966.61	1078.87
966.90	1078.26
967.20	1076.46
967.49	1076.62
967.79	1078.89
968.08	1079.92
968.38	1083.46
968.67	1084.21
968.97	1081.54
969.26	1084.02
969.56	1082.43
969.85	1078.94
970.15	1078.68
970.44	1080.11
970.74	1075.48
971.03	1079.27
971.32	1080.84
971.62	1078.99
971.91	1078.82
972.21	1076.06
972.50	1074.70
972.80	1074.19
973.09	1076.93
973.38	1079.20
973.68	1083.41
973.97	1085.61
974.27	1083.81
974.56	1082.90
974.85	1079.24
975.15	1083.79
975.44	1080.91
975.73	1082.43
976.03	1083.88
976.32	1085.94
976.61	1081.37
976.91	1081.89
977.20	1082.47
977.49	1081.58
977.79	1080.79
978.08	1081.47
978.37	1081.47
978.67	1081.47
978.96	1082.03
979.25	1084.28
979.55	1085.19
979.84	1088.54
980.13	1085.40
980.42	1085.19
980.72	1083.39
981.01	1083.11
981.30	1081.35
981.59	1084.67
981.89	1086.01
982.18	1086.41
982.47	1086.43
982.76	1082.90
983.06	1078.78
983.35	1077.84
983.64	1079.62
983.93	1078.31
984.22	1078.89
984.52	1080.77
984.81	1080.93
985.10	1080.95
985.39	1083.55
985.68	1085.59
985.97	1086.06
986.27	1083.57
986.56	1080.32
986.85	1079.67
987.14	1075.34
987.43	1075.80
987.72	1078.24
988.01	1083.62
988.31	1079.41
988.60	1083.01
988.89	1082.94
989.18	1081.96
989.47	1080.27
989.76	1085.45
990.05	1086.92
990.34	1089.54
990.63	1089.43
990.92	1087.74
991.21	1086.85
991.51	1085.31
991.80	1082.38
992.09	1082.05
992.38	1083.53
992.67	1083.95
992.96	1081.51
993.25	1081.61
993.54	1083.83
993.83	1083.04
994.12	1082.17
994.41	1084.67
994.70	1084.77
994.99	1085.31
995.28	1085.52
995.57	1084.72
995.86	1086.41
996.15	1087.13
996.44	1085.38
996.73	1084.11
997.02	1083.83
997.31	1081.68
997.59	1083.83
997.88	1084.79
998.17	1086.66
998.46	1086.20
998.75	1086.66
999.04	1081.96
999.33	1081.94
999.62	1079.60
999.91	1081.00
1000.20	1081.56
1000.49	1082.64
1000.77	1080.77
1001.06	1082.71
1001.35	1083.15
1001.64	1083.36
1001.93	1082.36
1002.22	1083.41
1002.51	1083.71
1002.79	1082.94
1003.08	1079.90
1003.37	1083.79
1003.66	1080.56
1003.95	1079.90
1004.23	1077.56
1004.52	1078.66
1004.81	1075.92
1005.10	1078.52
1005.39	1078.78
1005.67	1084.51
1005.96	1088.35
1006.25	1090.74
1006.54	1091.91
1006.83	1091.77
1007.11	1087.46
1007.40	1084.02
1007.69	1082.69
1007.97	1081.05
1008.26	1080.06
1008.55	1078.82
1008.84	1079.48
1009.12	1079.97
1009.41	1083.97
1009.70	1086.20
1009.98	1088.51
1010.27	1087.30
1010.56	1084.96
1010.85	1079.55
1011.13	1077.09
1011.42	1076.79
1011.71	1083.20
1011.99	1081.70
1012.28	1084.18
1012.56	1087.32
1012.85	1089.14
1013.14	1083.27
1013.42	1085.91
1013.71	1084.91
1014.00	1083.41
1014.28	1081.37
1014.57	1082.40
1014.85	1084.32
1015.14	1086.80
1015.43	1086.97
1015.71	1085.73
1016.00	1082.90
1016.28	1082.38
1016.57	1081.05
1016.85	1078.82
1017.14	1079.92
1017.43	1083.29
1017.71	1081.49
1018.00	1079.34
1018.28	1078.40
1018.57	1077.44
1018.85	1074.87
1019.14	1074.68
1019.42	1076.06
1019.71	1079.57
1019.99	1084.21
1020.28	1088.26
1020.56	1086.06
1020.85	1087.97
1021.13	1085.40
1021.42	1084.23
1021.70	1080.98
1021.99	1085.91
1022.27	1085.66
1022.55	1090.81
1022.84	1087.41
>>>>>End Processed Spectral Data<<<<<
