SpectraSuite Data File
++++++++++++++++++++++++++++++++++++
Date: Mon Aug 26 10:26:56 PDT 2019
User: corrico
Dark Spectrum Present: No
Reference Spectrum Present: No
Number of Sampled Component Spectra: 1
Spectrometers: USB2+H06089
Integration Time (usec): 10000 (USB2+H06089)
Spectra Averaged: 20 (USB2+H06089)
Boxcar Smoothing: 2 (USB2+H06089)
Correct for Electrical Dark: No (USB2+H06089)
Strobe/Lamp Enabled: No (USB2+H06089)
Correct for Detector Non-linearity: No (USB2+H06089)
Correct for Stray Light: No (USB2+H06089)
Number of Pixels in Processed Spectrum: 2048
>>>>>Begin Processed Spectral Data<<<<<
339.70	1031.71
340.07	1031.71
340.45	996.30
340.82	975.98
341.19	953.89
341.57	931.18
341.94	921.98
342.31	915.59
342.69	908.97
343.06	905.06
343.43	902.89
343.81	905.48
344.18	903.21
344.55	909.39
344.93	913.46
345.30	916.58
345.67	923.08
346.04	934.46
346.42	938.44
346.79	948.06
347.16	957.72
347.54	966.48
347.91	972.75
348.28	984.59
348.65	994.59
349.03	1003.43
349.40	1012.42
349.77	1023.80
350.14	1028.50
350.52	1034.87
350.89	1042.76
351.26	1050.57
351.63	1051.20
352.01	1060.17
352.38	1063.84
352.75	1064.26
353.12	1065.06
353.50	1068.85
353.87	1066.44
354.24	1068.57
354.61	1074.24
354.98	1074.68
355.36	1077.68
355.73	1082.59
356.10	1084.07
356.47	1083.95
356.84	1086.64
357.22	1088.65
357.59	1085.70
357.96	1083.83
358.33	1083.41
358.70	1082.17
359.08	1079.43
359.45	1079.92
359.82	1079.71
360.19	1076.88
360.56	1075.41
360.94	1074.35
361.31	1074.84
361.68	1075.17
362.05	1076.86
362.42	1076.53
362.79	1076.25
363.16	1074.03
363.54	1070.70
363.91	1069.32
364.28	1070.21
364.65	1068.76
365.02	1071.19
365.39	1070.82
365.76	1068.95
366.14	1067.28
366.51	1069.02
366.88	1067.49
367.25	1069.77
367.62	1073.56
367.99	1072.90
368.36	1070.14
368.73	1068.67
369.10	1067.75
369.48	1064.66
369.85	1064.36
370.22	1065.01
370.59	1065.67
370.96	1065.11
371.33	1065.13
371.70	1064.76
372.07	1062.93
372.44	1066.07
372.81	1065.20
373.18	1067.71
373.55	1068.92
373.93	1074.19
374.30	1068.95
374.67	1068.64
375.04	1067.61
375.41	1069.32
375.78	1065.88
376.15	1069.91
376.52	1069.74
376.89	1069.37
377.26	1065.41
377.63	1068.34
378.00	1067.47
378.37	1071.31
378.74	1070.42
379.11	1070.51
379.48	1069.06
379.85	1069.74
380.22	1069.34
380.59	1073.70
380.96	1075.41
381.33	1076.51
381.70	1073.60
382.07	1071.80
382.44	1068.55
382.81	1068.95
383.18	1067.68
383.55	1067.28
383.92	1070.68
384.29	1071.43
384.66	1073.14
385.03	1076.44
385.40	1080.11
385.77	1077.40
386.14	1075.48
386.51	1075.66
386.88	1071.59
387.25	1069.93
387.62	1071.08
387.99	1074.03
388.36	1072.41
388.73	1074.10
389.10	1076.01
389.46	1073.70
389.83	1073.16
390.20	1076.93
390.57	1074.19
390.94	1072.29
391.31	1076.15
391.68	1075.99
392.05	1073.65
392.42	1076.53
392.79	1078.85
393.16	1076.08
393.53	1073.37
393.89	1071.87
394.26	1073.28
394.63	1071.36
395.00	1072.11
395.37	1073.49
395.74	1075.24
396.11	1074.10
396.48	1075.24
396.84	1078.12
397.21	1078.75
397.58	1077.93
397.95	1077.28
398.32	1076.74
398.69	1076.88
399.06	1077.16
399.42	1077.35
399.79	1074.61
400.16	1077.23
400.53	1070.84
400.90	1069.48
401.27	1069.77
401.64	1074.28
402.00	1069.30
402.37	1072.57
402.74	1074.17
403.11	1071.90
403.48	1070.33
403.84	1071.26
404.21	1071.82
404.58	1071.71
404.95	1075.20
405.32	1078.52
405.68	1082.59
406.05	1082.83
406.42	1084.00
406.79	1081.91
407.16	1077.14
407.52	1079.06
407.89	1081.07
408.26	1079.22
408.63	1080.09
408.99	1083.36
409.36	1082.45
409.73	1079.31
410.10	1080.34
410.47	1080.18
410.83	1080.93
411.20	1079.43
411.57	1079.38
411.94	1079.83
412.30	1077.35
412.67	1077.58
413.04	1073.95
413.40	1072.67
413.77	1073.35
414.14	1075.01
414.51	1072.71
414.87	1073.02
415.24	1074.73
415.61	1075.71
415.97	1076.95
416.34	1077.02
416.71	1079.27
417.08	1081.02
417.44	1081.19
417.81	1081.87
418.18	1081.56
418.54	1079.31
418.91	1078.68
419.28	1078.24
419.64	1077.61
420.01	1074.19
420.38	1073.53
420.74	1074.00
421.11	1072.36
421.48	1073.32
421.84	1075.87
422.21	1078.26
422.58	1078.80
422.94	1075.76
423.31	1075.34
423.68	1074.26
424.04	1076.39
424.41	1076.81
424.77	1079.27
425.14	1079.69
425.51	1081.26
425.87	1078.71
426.24	1078.26
426.61	1079.17
426.97	1077.42
427.34	1079.13
427.70	1081.21
428.07	1079.27
428.44	1082.85
428.80	1082.26
429.17	1084.65
429.53	1081.00
429.90	1083.08
430.27	1078.71
430.63	1079.99
431.00	1077.33
431.36	1078.19
431.73	1077.65
432.09	1077.86
432.46	1077.14
432.83	1074.56
433.19	1076.97
433.56	1075.27
433.92	1076.97
434.29	1078.19
434.65	1078.21
435.02	1077.75
435.38	1080.39
435.75	1079.50
436.11	1077.42
436.48	1081.68
436.84	1083.50
437.21	1081.58
437.57	1081.12
437.94	1084.91
438.30	1080.51
438.67	1079.55
439.03	1080.79
439.40	1080.34
439.76	1079.36
440.13	1079.13
440.49	1078.68
440.86	1078.71
441.22	1074.94
441.59	1072.15
441.95	1071.68
442.32	1066.23
442.68	1064.31
443.05	1070.65
443.41	1072.41
443.78	1073.23
444.14	1077.75
444.51	1081.75
444.87	1081.21
445.24	1080.20
445.60	1081.98
445.96	1080.09
446.33	1076.53
446.69	1073.49
447.06	1073.77
447.42	1072.48
447.79	1071.87
448.15	1072.48
448.51	1076.79
448.88	1077.37
449.24	1084.30
449.61	1088.65
449.97	1089.57
450.33	1088.77
450.70	1085.00
451.06	1080.60
451.43	1078.57
451.79	1077.44
452.15	1075.20
452.52	1077.14
452.88	1076.88
453.24	1078.43
453.61	1078.52
453.97	1078.47
454.34	1078.73
454.70	1075.20
455.06	1073.91
455.43	1072.11
455.79	1075.92
456.15	1078.38
456.52	1080.46
456.88	1080.02
457.24	1081.58
457.61	1077.25
457.97	1077.33
458.33	1080.51
458.70	1080.06
459.06	1081.05
459.42	1081.51
459.79	1079.74
460.15	1077.14
460.51	1079.34
460.88	1079.71
461.24	1080.11
461.60	1080.20
461.96	1079.27
462.33	1077.68
462.69	1075.17
463.05	1076.27
463.42	1075.01
463.78	1076.90
464.14	1076.34
464.50	1078.75
464.87	1079.34
465.23	1080.53
465.59	1079.03
465.95	1081.47
466.32	1079.06
466.68	1078.73
467.04	1081.77
467.40	1082.33
467.77	1082.29
468.13	1082.99
468.49	1083.08
468.85	1082.76
469.22	1083.95
469.58	1077.68
469.94	1078.38
470.30	1077.37
470.66	1077.54
471.03	1074.26
471.39	1078.73
471.75	1081.16
472.11	1081.51
472.47	1080.95
472.84	1082.01
473.20	1083.76
473.56	1081.94
473.92	1081.70
474.28	1081.40
474.65	1084.51
475.01	1082.36
475.37	1082.54
475.73	1084.14
476.09	1082.61
476.45	1081.44
476.81	1084.00
477.18	1083.71
477.54	1079.20
477.90	1082.47
478.26	1080.79
478.62	1078.10
478.98	1077.72
479.34	1081.68
479.71	1079.55
480.07	1081.77
480.43	1084.79
480.79	1083.83
481.15	1083.81
481.51	1083.18
481.87	1082.40
482.23	1081.49
482.59	1084.44
482.96	1083.46
483.32	1084.30
483.68	1084.81
484.04	1084.14
484.40	1081.82
484.76	1081.44
485.12	1082.03
485.48	1081.58
485.84	1080.72
486.20	1085.80
486.56	1085.77
486.92	1084.58
487.28	1084.84
487.64	1086.45
488.00	1082.31
488.37	1081.37
488.73	1084.16
489.09	1083.79
489.45	1082.19
489.81	1082.85
490.17	1085.52
490.53	1083.27
490.89	1085.19
491.25	1086.83
491.61	1084.84
491.97	1084.32
492.33	1081.87
492.69	1080.88
493.05	1081.49
493.41	1080.72
493.77	1078.73
494.13	1082.43
494.49	1083.13
494.85	1081.87
495.21	1084.14
495.57	1083.71
495.93	1079.34
496.29	1079.85
496.64	1078.28
497.00	1080.30
497.36	1082.52
497.72	1088.30
498.08	1087.11
498.44	1089.50
498.80	1085.96
499.16	1085.87
499.52	1084.21
499.88	1082.47
500.24	1078.75
500.60	1078.12
500.96	1079.36
501.32	1077.18
501.68	1078.17
502.03	1082.40
502.39	1085.45
502.75	1084.14
503.11	1083.13
503.47	1082.22
503.83	1080.98
504.19	1078.33
504.55	1076.08
504.91	1077.49
505.26	1080.13
505.62	1077.47
505.98	1077.61
506.34	1078.94
506.70	1079.13
507.06	1075.45
507.42	1077.65
507.78	1079.43
508.13	1077.61
508.49	1079.01
508.85	1078.54
509.21	1080.11
509.57	1080.41
509.93	1083.67
510.28	1084.30
510.64	1087.06
511.00	1085.28
511.36	1084.11
511.72	1086.94
512.07	1084.96
512.43	1083.97
512.79	1083.86
513.15	1081.96
513.51	1078.57
513.86	1080.44
514.22	1080.37
514.58	1079.88
514.94	1083.93
515.30	1083.41
515.65	1081.96
516.01	1083.04
516.37	1083.74
516.73	1083.01
517.08	1085.00
517.44	1084.51
517.80	1084.30
518.16	1083.57
518.51	1083.39
518.87	1083.60
519.23	1085.91
519.59	1084.70
519.94	1087.93
520.30	1087.44
520.66	1086.71
521.01	1084.02
521.37	1087.37
521.73	1086.66
522.09	1088.19
522.44	1088.51
522.80	1090.36
523.16	1086.17
523.51	1086.36
523.87	1084.89
524.23	1085.14
524.58	1086.71
524.94	1086.27
525.30	1082.73
525.65	1083.01
526.01	1084.35
526.37	1080.56
526.72	1082.80
527.08	1086.50
527.44	1086.17
527.79	1085.38
528.15	1087.67
528.51	1091.04
528.86	1091.58
529.22	1092.28
529.58	1088.75
529.93	1089.47
530.29	1085.35
530.65	1084.32
531.00	1082.36
531.36	1082.94
531.71	1082.61
532.07	1081.33
532.43	1080.81
532.78	1082.99
533.14	1086.20
533.49	1083.11
533.85	1088.04
534.21	1086.97
534.56	1085.12
534.92	1082.26
535.27	1088.02
535.63	1088.89
535.98	1090.74
536.34	1090.55
536.69	1092.54
537.05	1089.05
537.41	1086.64
537.76	1084.07
538.12	1083.69
538.47	1083.18
538.83	1080.91
539.18	1082.45
539.54	1086.36
539.89	1089.78
540.25	1088.23
540.60	1092.07
540.96	1091.42
541.31	1092.87
541.67	1093.26
542.02	1093.55
542.38	1093.87
542.73	1091.77
543.09	1090.29
543.44	1087.09
543.80	1089.71
544.15	1087.76
544.51	1092.02
544.86	1091.56
545.22	1095.60
545.57	1093.01
545.93	1092.28
546.28	1088.42
546.64	1086.92
546.99	1085.35
547.35	1084.93
547.70	1087.58
548.05	1088.40
548.41	1084.44
548.76	1083.81
549.12	1085.80
549.47	1085.21
549.83	1082.90
550.18	1084.63
550.53	1086.64
550.89	1086.69
551.24	1086.06
551.60	1087.53
551.95	1091.86
552.30	1088.91
552.66	1085.82
553.01	1086.10
553.37	1084.37
553.72	1086.08
554.07	1085.38
554.43	1086.71
554.78	1084.89
555.13	1085.87
555.49	1081.89
555.84	1078.75
556.19	1081.14
556.55	1079.71
556.90	1078.94
557.26	1079.67
557.61	1086.99
557.96	1085.68
558.32	1088.14
558.67	1089.45
559.02	1087.88
559.37	1083.90
559.73	1081.42
560.08	1079.53
560.43	1079.41
560.79	1080.27
561.14	1078.28
561.49	1079.17
561.85	1081.30
562.20	1083.53
562.55	1082.03
562.90	1082.71
563.26	1083.95
563.61	1085.24
563.96	1084.25
564.32	1086.76
564.67	1088.35
565.02	1089.05
565.37	1087.79
565.73	1086.52
566.08	1084.07
566.43	1082.57
566.78	1081.09
567.14	1080.02
567.49	1081.19
567.84	1083.48
568.19	1085.10
568.54	1086.36
568.90	1087.13
569.25	1086.57
569.60	1085.63
569.95	1087.88
570.31	1084.89
570.66	1082.87
571.01	1081.35
571.36	1079.55
571.71	1076.30
572.06	1078.71
572.42	1081.49
572.77	1083.27
573.12	1084.44
573.47	1084.23
573.82	1083.11
574.18	1080.95
574.53	1078.61
574.88	1077.23
575.23	1080.30
575.58	1082.66
575.93	1084.44
576.28	1086.13
576.64	1086.01
576.99	1084.35
577.34	1082.80
577.69	1079.13
578.04	1077.68
578.39	1080.51
578.74	1079.46
579.09	1077.79
579.44	1085.63
579.80	1088.42
580.15	1088.63
580.50	1092.73
580.85	1097.71
581.20	1092.84
581.55	1091.25
581.90	1092.35
582.25	1088.14
582.60	1083.22
582.95	1081.87
583.30	1083.93
583.65	1079.48
584.00	1082.10
584.35	1082.38
584.71	1083.22
585.06	1078.47
585.41	1079.76
585.76	1078.14
586.11	1080.63
586.46	1081.42
586.81	1083.83
587.16	1085.35
587.51	1088.16
587.86	1088.04
588.21	1088.35
588.56	1087.20
588.91	1084.37
589.26	1082.40
589.61	1080.20
589.96	1077.09
590.31	1081.44
590.66	1082.29
591.01	1079.15
591.36	1081.16
591.71	1083.39
592.06	1079.64
592.41	1081.19
592.76	1082.80
593.10	1081.96
593.45	1079.60
593.80	1078.78
594.15	1077.11
594.50	1077.79
594.85	1077.56
595.20	1080.30
595.55	1084.37
595.90	1083.71
596.25	1082.01
596.60	1081.82
596.95	1084.18
597.30	1081.16
597.64	1134.57
597.99	1136.35
598.34	1135.30
598.69	1135.98
599.04	1138.95
599.39	1086.69
599.74	1086.57
600.09	1086.08
600.44	1081.42
600.78	1079.20
601.13	1076.76
601.48	1078.89
601.83	1082.03
602.18	1081.66
602.53	1082.17
602.88	1086.13
603.22	1080.91
603.57	1080.39
603.92	1082.47
604.27	1080.23
604.62	1079.31
604.97	1081.77
605.31	1081.87
605.66	1081.82
606.01	1082.19
606.36	1082.47
606.71	1085.05
607.05	1086.76
607.40	1086.57
607.75	1087.06
608.10	1085.66
608.44	1083.32
608.79	1083.55
609.14	1085.63
609.49	1089.22
609.84	1094.65
610.18	1098.90
610.53	1102.39
610.88	1108.29
611.23	1112.83
611.57	1114.19
611.92	1117.07
612.27	1114.14
612.62	1107.47
612.96	1101.81
613.31	1099.58
613.66	1094.67
614.00	1093.26
614.35	1093.31
614.70	1092.91
615.05	1091.79
615.39	1093.15
615.74	1091.95
616.09	1093.24
616.43	1092.19
616.78	1090.64
617.13	1087.79
617.47	1088.40
617.82	1086.08
618.17	1084.07
618.51	1083.79
618.86	1082.76
619.21	1082.47
619.55	1082.50
619.90	1084.53
620.25	1084.09
620.59	1084.07
620.94	1082.15
621.29	1080.37
621.63	1080.56
621.98	1080.39
622.32	1080.84
622.67	1084.14
623.02	1086.76
623.36	1087.83
623.71	1091.51
624.05	1091.84
624.40	1091.44
624.75	1090.60
625.09	1087.27
625.44	1083.69
625.78	1083.36
626.13	1083.13
626.48	1080.51
626.82	1082.10
627.17	1082.99
627.51	1085.12
627.86	1083.93
628.20	1084.23
628.55	1081.61
628.89	1081.37
629.24	1081.73
629.58	1083.74
629.93	1083.22
630.28	1089.82
630.62	1089.87
630.97	1085.82
631.31	1083.95
631.66	1086.64
632.00	1083.67
632.35	1083.39
632.69	1086.59
633.04	1085.35
633.38	1085.28
633.73	1082.47
634.07	1081.19
634.42	1079.78
634.76	1082.54
635.11	1080.39
635.45	1082.33
635.79	1083.57
636.14	1084.14
636.48	1081.94
636.83	1086.24
637.17	1083.64
637.52	1082.99
637.86	1083.08
638.21	1082.66
638.55	1081.87
638.89	1084.84
639.24	1086.10
639.58	1085.33
639.93	1082.85
640.27	1081.94
640.61	1079.97
640.96	1079.62
641.30	1081.70
641.65	1082.50
641.99	1080.02
642.33	1081.73
642.68	1081.33
643.02	1079.53
643.37	1082.71
643.71	1084.49
644.05	1083.97
644.40	1084.11
644.74	1083.55
645.08	1082.69
645.43	1081.91
645.77	1080.25
646.11	1081.47
646.46	1082.94
646.80	1084.28
647.14	1084.89
647.49	1085.45
647.83	1082.99
648.17	1079.36
648.52	1078.14
648.86	1076.06
649.20	1079.78
649.55	1081.35
649.89	1083.95
650.23	1084.25
650.57	1086.66
650.92	1084.70
651.26	1082.76
651.60	1082.33
651.95	1080.46
652.29	1080.53
652.63	1080.25
652.97	1083.57
653.32	1084.00
653.66	1084.23
654.00	1083.60
654.34	1084.04
654.69	1082.90
655.03	1082.94
655.37	1083.34
655.71	1081.84
656.05	1081.58
656.40	1081.00
656.74	1078.10
657.08	1078.85
657.42	1080.51
657.76	1081.33
658.11	1078.92
658.45	1081.07
658.79	1078.94
659.13	1079.99
659.47	1078.78
659.82	1081.00
660.16	1080.37
660.50	1082.87
660.84	1083.22
661.18	1082.47
661.52	1080.51
661.87	1083.62
662.21	1083.67
662.55	1081.35
662.89	1081.75
663.23	1083.53
663.57	1079.90
663.91	1079.60
664.25	1080.20
664.60	1081.49
664.94	1081.73
665.28	1083.90
665.62	1084.65
665.96	1085.12
666.30	1085.66
666.64	1083.13
666.98	1081.89
667.32	1081.89
667.66	1080.41
668.01	1079.57
668.35	1081.07
668.69	1081.47
669.03	1079.97
669.37	1083.88
669.71	1082.38
670.05	1079.60
670.39	1080.06
670.73	1083.08
671.07	1081.66
671.41	1081.98
671.75	1085.96
672.09	1086.97
672.43	1085.80
672.77	1088.00
673.11	1090.74
673.45	1090.13
673.79	1089.33
674.13	1088.86
674.47	1083.71
674.81	1081.33
675.15	1078.80
675.49	1078.71
675.83	1075.43
676.17	1076.30
676.51	1077.00
676.85	1077.30
677.19	1073.28
677.53	1075.22
677.87	1076.65
678.21	1075.27
678.55	1076.41
678.89	1078.73
679.23	1077.96
679.57	1077.84
679.90	1078.75
680.24	1082.26
680.58	1085.70
680.92	1084.67
681.26	1085.80
681.60	1086.92
681.94	1087.79
682.28	1087.34
682.62	1089.29
682.96	1087.30
683.29	1086.87
683.63	1083.39
683.97	1081.12
684.31	1081.40
684.65	1081.44
684.99	1081.21
685.33	1080.46
685.67	1081.91
686.00	1084.18
686.34	1086.71
686.68	1087.16
687.02	1087.81
687.36	1086.69
687.70	1083.79
688.03	1081.23
688.37	1081.51
688.71	1082.29
689.05	1086.27
689.39	1087.41
689.72	1086.29
690.06	1088.49
690.40	1087.23
690.74	1081.84
691.08	1078.71
691.41	1077.82
691.75	1075.01
692.09	1079.48
692.43	1083.76
692.76	1084.04
693.10	1085.54
693.44	1085.84
693.78	1080.53
694.11	1078.12
694.45	1079.62
694.79	1078.00
695.13	1076.46
695.46	1079.10
695.80	1077.14
696.14	1078.85
696.48	1081.23
696.81	1083.71
697.15	1085.49
697.49	1087.13
697.82	1088.79
698.16	1087.62
698.50	1082.80
698.83	1084.93
699.17	1084.04
699.51	1080.41
699.84	1081.51
700.18	1082.26
700.52	1079.17
700.85	1080.18
701.19	1080.56
701.53	1081.68
701.86	1081.84
702.20	1083.27
702.54	1082.24
702.87	1082.43
703.21	1079.67
703.55	1082.83
703.88	1081.02
704.22	1084.60
704.55	1087.23
704.89	1087.74
705.23	1087.20
705.56	1088.07
705.90	1085.82
706.23	1084.07
706.57	1087.32
706.91	1087.69
707.24	1088.00
707.58	1088.70
707.91	1087.51
708.25	1085.82
708.58	1086.36
708.92	1086.92
709.26	1085.45
709.59	1086.20
709.93	1088.00
710.26	1088.09
710.60	1083.95
710.93	1085.68
711.27	1087.86
711.60	1084.39
711.94	1080.34
712.27	1081.91
712.61	1082.36
712.94	1080.06
713.28	1080.02
713.61	1081.61
713.95	1079.46
714.28	1077.65
714.62	1079.46
714.95	1083.71
715.29	1087.67
715.62	1087.53
715.96	1086.50
716.29	1085.75
716.63	1084.89
716.96	1083.22
717.29	1083.27
717.63	1084.51
717.96	1081.05
718.30	1079.76
718.63	1077.58
718.97	1077.09
719.30	1078.40
719.63	1084.25
719.97	1083.95
720.30	1083.90
720.64	1089.87
720.97	1089.66
721.30	1085.28
721.64	1083.67
721.97	1087.53
722.31	1085.38
722.64	1084.42
722.97	1086.13
723.31	1088.68
723.64	1086.22
723.97	1085.00
724.31	1084.60
724.64	1082.24
724.98	1080.70
725.31	1079.22
725.64	1078.03
725.98	1078.47
726.31	1082.24
726.64	1082.38
726.97	1083.81
727.31	1083.25
727.64	1081.80
727.97	1080.09
728.31	1084.49
728.64	1085.33
728.97	1085.61
729.31	1091.04
729.64	1088.68
729.97	1083.90
730.30	1082.36
730.64	1078.87
730.97	1072.90
731.30	1075.85
731.63	1076.83
731.97	1078.03
732.30	1079.92
732.63	1082.38
732.96	1080.91
733.30	1080.88
733.63	1080.88
733.96	1083.88
734.29	1084.56
734.63	1084.30
734.96	1083.39
735.29	1082.38
735.62	1083.01
735.95	1080.70
736.29	1083.55
736.62	1086.08
736.95	1084.32
737.28	1082.61
737.61	1082.43
737.94	1081.16
738.28	1080.58
738.61	1080.46
738.94	1079.95
739.27	1082.31
739.60	1081.61
739.93	1080.39
740.27	1085.63
740.60	1085.75
740.93	1084.77
741.26	1084.96
741.59	1083.79
741.92	1083.36
742.25	1086.10
742.58	1083.79
742.91	1083.50
743.25	1085.89
743.58	1085.28
743.91	1085.80
744.24	1088.00
744.57	1089.96
744.90	1088.14
745.23	1084.91
745.56	1083.83
745.89	1082.90
746.22	1080.53
746.55	1080.04
746.88	1082.92
747.21	1080.37
747.54	1081.02
747.87	1080.25
748.20	1080.60
748.53	1077.44
748.87	1079.92
749.20	1079.90
749.53	1079.01
749.86	1076.60
750.19	1074.94
750.52	1074.03
750.85	1072.67
751.18	1071.90
751.51	1073.95
751.84	1078.33
752.16	1080.60
752.49	1079.90
752.82	1080.81
753.15	1084.98
753.48	1082.64
753.81	1078.82
754.14	1083.36
754.47	1083.48
754.80	1078.38
755.13	1080.23
755.46	1081.98
755.79	1080.18
756.12	1082.92
756.45	1084.28
756.78	1082.52
757.11	1081.09
757.43	1080.06
757.76	1078.05
758.09	1076.58
758.42	1077.96
758.75	1077.82
759.08	1077.35
759.41	1077.91
759.74	1083.01
760.07	1080.91
760.39	1081.16
760.72	1080.88
761.05	1078.71
761.38	1072.60
761.71	1072.90
762.04	1074.66
762.36	1077.79
762.69	1079.27
763.02	1081.00
763.35	1081.54
763.68	1079.48
764.01	1077.18
764.33	1076.20
764.66	1078.47
764.99	1079.29
765.32	1081.77
765.65	1084.14
765.97	1088.42
766.30	1085.68
766.63	1086.71
766.96	1087.97
767.28	1088.09
767.61	1086.29
767.94	1088.56
768.27	1084.37
768.59	1082.52
768.92	1080.32
769.25	1080.58
769.58	1082.26
769.90	1084.02
770.23	1083.20
770.56	1082.99
770.89	1082.57
771.21	1082.03
771.54	1082.03
771.87	1079.55
772.19	1081.40
772.52	1080.39
772.85	1077.37
773.17	1079.95
773.50	1084.18
773.83	1083.08
774.15	1084.79
774.48	1087.81
774.81	1084.53
775.13	1082.66
775.46	1083.06
775.79	1081.23
776.11	1081.35
776.44	1081.75
776.77	1084.77
777.09	1084.18
777.42	1084.30
777.74	1083.46
778.07	1086.41
778.40	1082.83
778.72	1085.59
779.05	1087.79
779.37	1084.86
779.70	1084.42
780.03	1085.56
780.35	1081.98
780.68	1079.78
781.00	1084.07
781.33	1081.40
781.65	1080.39
781.98	1082.43
782.31	1084.37
782.63	1083.06
782.96	1085.05
783.28	1087.48
783.61	1086.38
783.93	1085.70
784.26	1082.92
784.58	1082.85
784.91	1082.22
785.23	1085.52
785.56	1087.46
785.88	1091.16
786.21	1092.87
786.53	1090.97
786.86	1086.85
787.18	1083.13
787.51	1079.64
787.83	1076.01
788.16	1077.37
788.48	1076.37
788.81	1078.24
789.13	1081.19
789.46	1083.20
789.78	1084.25
790.10	1084.77
790.43	1082.61
790.75	1082.05
791.08	1079.74
791.40	1078.52
791.73	1086.80
792.05	1088.54
792.37	1088.75
792.70	1090.64
793.02	1089.75
793.35	1083.32
793.67	1085.63
793.99	1083.46
794.32	1083.81
794.64	1085.07
794.96	1085.10
795.29	1080.79
795.61	1078.12
795.93	1076.67
796.26	1079.62
796.58	1081.00
796.91	1083.90
797.23	1088.28
797.55	1087.90
797.87	1086.10
798.20	1085.26
798.52	1082.64
798.84	1083.76
799.17	1085.77
799.49	1081.89
799.81	1078.94
800.14	1080.60
800.46	1078.73
800.78	1077.49
801.10	1082.90
801.43	1083.11
801.75	1085.96
802.07	1085.28
802.40	1086.57
802.72	1083.93
803.04	1085.94
803.36	1082.01
803.69	1082.01
804.01	1080.23
804.33	1078.50
804.65	1076.13
804.97	1077.49
805.30	1077.00
805.62	1077.89
805.94	1081.33
806.26	1081.70
806.58	1081.94
806.91	1082.40
807.23	1080.25
807.55	1074.49
807.87	1076.51
808.19	1074.33
808.52	1074.70
808.84	1075.62
809.16	1078.47
809.48	1078.31
809.80	1080.65
810.12	1080.37
810.44	1082.26
810.77	1082.97
811.09	1083.50
811.41	1081.70
811.73	1081.51
812.05	1080.65
812.37	1080.09
812.69	1078.89
813.01	1081.30
813.33	1083.86
813.66	1084.65
813.98	1085.17
814.30	1086.52
814.62	1084.09
814.94	1081.02
815.26	1081.09
815.58	1079.92
815.90	1078.54
816.22	1079.08
816.54	1077.28
816.86	1075.76
817.18	1079.62
817.50	1080.11
817.82	1081.19
818.14	1084.67
818.46	1087.90
818.78	1086.10
819.10	1085.00
819.42	1082.99
819.74	1082.76
820.06	1080.32
820.38	1080.58
820.70	1083.97
821.02	1086.76
821.34	1088.82
821.66	1090.24
821.98	1089.54
822.30	1089.24
822.62	1089.24
822.94	1087.32
823.26	1086.31
823.58	1086.80
823.90	1085.73
824.22	1085.00
824.54	1084.67
824.86	1084.44
825.18	1083.93
825.50	1084.77
825.81	1083.64
826.13	1085.94
826.45	1087.88
826.77	1085.24
827.09	1083.71
827.41	1083.18
827.73	1083.39
828.05	1081.30
828.36	1082.36
828.68	1082.17
829.00	1082.31
829.32	1080.37
829.64	1079.38
829.96	1081.40
830.28	1078.96
830.59	1080.63
830.91	1082.19
831.23	1083.83
831.55	1081.42
831.87	1083.60
832.19	1082.78
832.50	1079.69
832.82	1078.82
833.14	1082.92
833.46	1084.98
833.78	1086.22
834.09	1086.76
834.41	1088.98
834.73	1085.87
835.05	1082.97
835.36	1081.96
835.68	1081.44
836.00	1079.22
836.32	1078.00
836.63	1078.36
836.95	1079.95
837.27	1079.06
837.59	1080.37
837.90	1081.56
838.22	1081.70
838.54	1080.37
838.85	1080.93
839.17	1079.24
839.49	1079.99
839.80	1081.66
840.12	1084.02
840.44	1086.50
840.76	1089.17
841.07	1089.68
841.39	1087.30
841.71	1084.11
842.02	1082.76
842.34	1081.12
842.65	1081.44
842.97	1084.39
843.29	1085.42
843.60	1085.49
843.92	1085.52
844.24	1085.80
844.55	1083.39
844.87	1082.59
845.18	1083.13
845.50	1082.80
845.82	1079.27
846.13	1078.80
846.45	1076.58
846.76	1078.50
847.08	1077.40
847.40	1079.43
847.71	1079.03
848.03	1080.81
848.34	1079.55
848.66	1082.80
848.97	1083.36
849.29	1083.48
849.60	1083.04
849.92	1081.26
850.24	1078.05
850.55	1075.71
850.87	1078.05
851.18	1077.49
851.50	1076.48
851.81	1078.26
852.13	1081.14
852.44	1081.49
852.76	1083.46
853.07	1084.46
853.39	1083.43
853.70	1085.00
854.01	1084.86
854.33	1082.36
854.64	1085.14
854.96	1087.81
855.27	1082.78
855.59	1079.17
855.90	1078.82
856.22	1075.34
856.53	1073.63
856.84	1074.40
857.16	1077.33
857.47	1080.41
857.79	1084.60
858.10	1081.47
858.41	1082.59
858.73	1081.63
859.04	1083.27
859.36	1078.64
859.67	1082.12
859.98	1085.89
860.30	1086.29
860.61	1084.93
860.92	1087.51
861.24	1085.66
861.55	1081.05
861.87	1080.70
862.18	1079.29
862.49	1078.59
862.81	1078.99
863.12	1077.30
863.43	1080.46
863.74	1080.06
864.06	1081.44
864.37	1081.96
864.68	1084.58
865.00	1081.75
865.31	1081.26
865.62	1081.14
865.94	1079.55
866.25	1080.23
866.56	1078.07
866.87	1077.84
867.19	1075.03
867.50	1078.21
867.81	1077.77
868.12	1078.68
868.44	1080.95
868.75	1078.85
869.06	1078.07
869.37	1074.31
869.68	1074.61
870.00	1073.04
870.31	1077.35
870.62	1075.80
870.93	1078.94
871.24	1080.67
871.56	1079.64
871.87	1077.47
872.18	1079.78
872.49	1079.20
872.80	1080.34
873.12	1082.76
873.43	1085.77
873.74	1082.99
874.05	1084.65
874.36	1084.44
874.67	1084.25
874.98	1083.46
875.29	1085.07
875.61	1085.24
875.92	1084.04
876.23	1083.74
876.54	1082.97
876.85	1080.91
877.16	1078.59
877.47	1078.43
877.78	1075.87
878.09	1075.59
878.40	1078.85
878.72	1080.86
879.03	1081.02
879.34	1084.51
879.65	1085.61
879.96	1084.09
880.27	1082.19
880.58	1078.45
880.89	1080.46
881.20	1082.99
881.51	1084.04
881.82	1085.21
882.13	1088.91
882.44	1088.28
882.75	1085.28
883.06	1085.47
883.37	1087.65
883.68	1083.46
883.99	1081.77
884.30	1083.50
884.61	1082.85
884.92	1080.46
885.23	1082.38
885.54	1083.36
885.85	1082.99
886.16	1083.97
886.47	1084.35
886.78	1086.36
887.08	1085.14
887.39	1083.62
887.70	1083.46
888.01	1088.51
888.32	1090.50
888.63	1090.97
888.94	1091.16
889.25	1089.38
889.56	1085.87
889.87	1082.59
890.17	1081.80
890.48	1082.22
890.79	1082.50
891.10	1080.86
891.41	1081.66
891.72	1083.81
892.03	1082.36
892.34	1081.49
892.64	1080.98
892.95	1078.52
893.26	1077.70
893.57	1078.71
893.88	1079.22
894.18	1079.95
894.49	1084.28
894.80	1081.21
895.11	1081.19
895.42	1082.43
895.72	1082.92
896.03	1079.95
896.34	1080.88
896.65	1079.55
896.96	1078.50
897.26	1078.94
897.57	1082.69
897.88	1085.14
898.19	1086.62
898.49	1084.18
898.80	1083.95
899.11	1080.48
899.41	1079.31
899.72	1079.78
900.03	1081.37
900.34	1080.53
900.64	1082.31
900.95	1079.88
901.26	1080.02
901.56	1081.87
901.87	1082.24
902.18	1080.79
902.48	1086.31
902.79	1084.37
903.10	1083.93
903.40	1084.70
903.71	1084.32
904.02	1080.02
904.32	1083.06
904.63	1084.09
904.94	1083.39
905.24	1083.83
905.55	1084.21
905.85	1083.15
906.16	1079.62
906.47	1076.58
906.77	1077.63
907.08	1074.10
907.38	1073.00
907.69	1074.82
908.00	1077.68
908.30	1079.62
908.61	1082.47
908.91	1083.20
909.22	1082.80
909.52	1082.08
909.83	1082.10
910.14	1084.44
910.44	1083.11
910.75	1082.36
911.05	1084.46
911.36	1083.71
911.66	1083.20
911.97	1085.24
912.27	1088.86
912.58	1086.76
912.88	1085.70
913.19	1084.70
913.49	1082.85
913.80	1079.22
914.10	1077.96
914.41	1075.97
914.71	1076.20
915.01	1076.60
915.32	1078.21
915.62	1080.58
915.93	1083.08
916.23	1082.94
916.54	1083.69
916.84	1082.83
917.15	1084.51
917.45	1082.40
917.75	1082.47
918.06	1080.98
918.36	1083.62
918.67	1081.94
918.97	1084.35
919.27	1086.62
919.58	1086.76
919.88	1087.04
920.18	1088.49
920.49	1086.06
920.79	1083.81
921.10	1081.87
921.40	1081.84
921.70	1080.65
922.01	1081.89
922.31	1080.11
922.61	1081.61
922.92	1079.57
923.22	1076.06
923.52	1076.62
923.82	1078.73
924.13	1077.65
924.43	1080.30
924.73	1083.53
925.04	1080.13
925.34	1081.44
925.64	1083.60
925.94	1080.98
926.25	1082.03
926.55	1086.80
926.85	1085.14
927.15	1087.13
927.46	1086.83
927.76	1087.79
928.06	1085.77
928.36	1086.73
928.67	1087.13
928.97	1087.13
929.27	1082.38
929.57	1079.95
929.87	1079.57
930.18	1077.21
930.48	1080.30
930.78	1085.96
931.08	1088.75
931.38	1088.42
931.69	1090.55
931.99	1086.62
932.29	1086.27
932.59	1085.45
932.89	1085.00
933.19	1083.11
933.49	1085.54
933.80	1082.92
934.10	1084.74
934.40	1084.35
934.70	1081.58
935.00	1081.28
935.30	1080.51
935.60	1079.57
935.90	1079.76
936.20	1084.07
936.50	1082.83
936.81	1084.02
937.11	1085.94
937.41	1089.14
937.71	1086.85
938.01	1087.58
938.31	1088.02
938.61	1082.52
938.91	1079.69
939.21	1079.24
939.51	1080.04
939.81	1078.38
940.11	1080.13
940.41	1078.80
940.71	1079.69
941.01	1076.53
941.31	1078.96
941.61	1081.94
941.91	1083.93
942.21	1082.33
942.51	1083.34
942.81	1080.04
943.11	1078.33
943.41	1078.94
943.71	1081.30
944.01	1079.60
944.31	1077.56
944.61	1078.75
944.90	1077.63
945.20	1075.99
945.50	1080.58
945.80	1084.37
946.10	1080.79
946.40	1082.33
946.70	1080.30
947.00	1080.46
947.30	1078.87
947.60	1081.37
947.89	1079.95
948.19	1083.71
948.49	1078.45
948.79	1080.63
949.09	1081.77
949.39	1080.67
949.69	1078.57
949.98	1082.01
950.28	1083.34
950.58	1082.03
950.88	1083.74
951.18	1086.36
951.48	1085.96
951.77	1082.90
952.07	1080.39
952.37	1078.57
952.67	1075.15
952.97	1077.16
953.26	1078.12
953.56	1079.71
953.86	1081.26
954.16	1084.04
954.45	1080.84
954.75	1079.43
955.05	1081.44
955.35	1081.14
955.64	1081.14
955.94	1081.12
956.24	1084.51
956.54	1085.54
956.83	1087.32
957.13	1084.07
957.43	1085.84
957.72	1086.57
958.02	1082.66
958.32	1080.30
958.61	1082.40
958.91	1082.69
959.21	1077.72
959.50	1078.66
959.80	1078.54
960.10	1079.17
960.39	1078.31
960.69	1080.20
960.99	1083.69
961.28	1083.95
961.58	1084.72
961.87	1083.39
962.17	1085.12
962.47	1081.56
962.76	1080.86
963.06	1081.44
963.36	1083.53
963.65	1082.59
963.95	1082.83
964.24	1088.21
964.54	1087.20
964.83	1087.67
965.13	1087.46
965.42	1087.69
965.72	1082.36
966.02	1077.11
966.31	1073.14
966.61	1071.59
966.90	1071.57
967.20	1071.97
967.49	1074.49
967.79	1078.52
968.08	1082.08
968.38	1083.60
968.67	1084.86
968.97	1087.53
969.26	1087.20
969.56	1086.03
969.85	1085.87
970.15	1082.64
970.44	1081.56
970.74	1078.73
971.03	1079.95
971.32	1078.87
971.62	1081.84
971.91	1081.21
972.21	1082.12
972.50	1078.82
972.80	1081.19
973.09	1081.26
973.38	1084.79
973.68	1086.03
973.97	1085.47
974.27	1085.66
974.56	1084.91
974.85	1084.53
975.15	1087.30
975.44	1088.58
975.73	1089.17
976.03	1088.54
976.32	1087.34
976.61	1087.41
976.91	1089.10
977.20	1089.40
977.49	1089.33
977.79	1088.00
978.08	1085.45
978.37	1087.02
978.67	1085.66
978.96	1088.19
979.25	1088.82
979.55	1088.00
979.84	1082.78
980.13	1082.43
980.42	1083.67
980.72	1083.76
981.01	1085.12
981.30	1089.94
981.59	1088.30
981.89	1085.31
982.18	1086.87
982.47	1088.28
982.76	1085.82
983.06	1085.00
983.35	1087.04
983.64	1087.46
983.93	1083.60
984.22	1083.83
984.52	1084.32
984.81	1079.88
985.10	1074.10
985.39	1075.55
985.68	1074.96
985.97	1079.71
986.27	1081.12
986.56	1085.94
986.85	1083.86
987.14	1083.64
987.43	1081.58
987.72	1082.78
988.01	1080.48
988.31	1081.35
988.60	1082.22
988.89	1078.82
989.18	1079.13
989.47	1077.77
989.76	1079.57
990.05	1078.38
990.34	1079.92
990.63	1080.13
990.92	1080.37
991.21	1081.09
991.51	1081.58
991.80	1079.20
992.09	1075.69
992.38	1079.36
992.67	1078.05
992.96	1079.06
993.25	1080.39
993.54	1083.01
993.83	1082.61
994.12	1084.14
994.41	1085.03
994.70	1085.54
994.99	1084.67
995.28	1083.39
995.57	1081.96
995.86	1081.49
996.15	1081.54
996.44	1082.76
996.73	1087.32
997.02	1087.48
997.31	1087.37
997.59	1088.82
997.88	1086.48
998.17	1083.15
998.46	1086.52
998.75	1083.95
999.04	1082.24
999.33	1084.42
999.62	1084.18
999.91	1080.70
1000.20	1080.02
1000.49	1082.80
1000.77	1083.62
1001.06	1081.30
1001.35	1081.37
1001.64	1081.30
1001.93	1082.90
1002.22	1081.56
1002.51	1082.78
1002.79	1083.22
1003.08	1086.08
1003.37	1081.14
1003.66	1081.49
1003.95	1081.35
1004.23	1082.90
1004.52	1081.66
1004.81	1081.73
1005.10	1080.37
1005.39	1079.95
1005.67	1079.24
1005.96	1082.87
1006.25	1080.86
1006.54	1081.37
1006.83	1082.38
1007.11	1079.60
1007.40	1074.35
1007.69	1076.81
1007.97	1077.04
1008.26	1075.34
1008.55	1077.84
1008.84	1079.01
1009.12	1076.69
1009.41	1078.03
1009.70	1079.17
1009.98	1076.79
1010.27	1079.24
1010.56	1080.11
1010.85	1079.85
1011.13	1079.92
1011.42	1084.11
1011.71	1081.82
1011.99	1083.36
1012.28	1083.36
1012.56	1085.84
1012.85	1087.34
1013.14	1088.12
1013.42	1088.37
1013.71	1087.51
1014.00	1085.31
1014.28	1082.52
1014.57	1082.85
1014.85	1082.22
1015.14	1084.37
1015.43	1084.96
1015.71	1081.58
1016.00	1083.08
1016.28	1085.10
1016.57	1086.48
1016.85	1085.26
1017.14	1088.40
1017.43	1084.42
1017.71	1084.28
1018.00	1079.34
1018.28	1078.50
1018.57	1075.20
1018.85	1077.86
1019.14	1076.27
1019.42	1078.54
1019.71	1077.63
1019.99	1076.11
1020.28	1075.69
1020.56	1075.69
1020.85	1075.59
1021.13	1081.28
1021.42	1083.18
1021.70	1081.73
1021.99	1082.90
1022.27	1084.77
1022.55	1085.66
1022.84	1091.86
>>>>>End Processed Spectral Data<<<<<
